TimeStamp,Delta_TP9,Delta_AF7,Delta_AF8,Delta_TP10,Theta_TP9,Theta_AF7,Theta_AF8,Theta_TP10,Alpha_TP9,Alpha_AF7,Alpha_AF8,Alpha_TP10,Beta_TP9,Beta_AF7,Beta_AF8,Beta_TP10,Gamma_TP9,Gamma_AF7,Gamma_AF8,Gamma_TP10,RAW_TP9,RAW_AF7,RAW_AF8,RAW_TP10,AUX_RIGHT,Accelerometer_X,Accelerometer_Y,Accelerometer_Z,Gyro_X,Gyro_Y,Gyro_Z,HeadBandOn,HSI_TP9,HSI_AF7,HSI_AF8,HSI_TP10,Battery,Elements
2021-08-26 21:10:25.074,1.0050687,0.0,0.0,1.4503957,0.8746807,0.0,0.0,1.0807788,0.9157426,0.0,0.0,1.1905838,0.91392404,0.0,0.0,0.8616552,0.8202196,0.0,0.0,0.86802757,788.93774,736.55676,686.5934,865.89746,574.57874,-0.1070556640625,0.03753662109375,1.0032958984375,4.403839111328125,-4.53094482421875,-2.04864501953125,1,1.0,1.0,1.0,1.0,100.00
2021-08-26 21:10:25.074,1.0050687,0.0,0.0,1.4503957,0.8746807,0.0,0.0,1.0807788,0.9157426,0.0,0.0,1.1905838,0.91392404,0.0,0.0,0.8616552,0.8202196,0.0,0.0,0.86802757,786.9231,737.3626,684.17584,908.20514,847.76556,-0.1070556640625,0.03753662109375,1.0032958984375,4.403839111328125,-4.53094482421875,-2.04864501953125,1,1.0,1.0,1.0,1.0,100.00
2021-08-26 21:10:25.075,1.0050687,0.0,0.0,1.4503957,0.8746807,0.0,0.0,1.0807788,0.9157426,0.0,0.0,1.1905838,0.91392404,0.0,0.0,0.8616552,0.8202196,0.0,0.0,0.86802757,803.44324,732.9304,697.47253,892.8938,1014.57874,-0.1070556640625,0.03753662109375,1.0032958984375,4.403839111328125,-4.53094482421875,-2.04864501953125,1,1.0,1.0,1.0,1.0,100.00
2021-08-26 21:10:25.075,1.0050687,0.0,0.0,1.4503957,0.8746807,0.0,0.0,1.0807788,0.9157426,0.0,0.0,1.1905838,0.91392404,0.0,0.0,0.8616552,0.8202196,0.0,0.0,0.86802757,806.26373,732.9304,702.71063,846.9597,780.4762,-0.1070556640625,0.03753662109375,1.0032958984375,4.403839111328125,-4.53094482421875,-2.04864501953125,1,1.0,1.0,1.0,1.0,100.00
2021-08-26 21:10:25.077,1.0050687,0.0,0.0,1.4503957,0.8746807,0.0,0.0,1.0807788,0.9157426,0.0,0.0,1.1905838,0.91392404,0.0,0.0,0.8616552,0.8202196,0.0,0.0,0.86802757,824.7985,738.5714,695.4579,861.4652,576.1905,-0.1070556640625,0.03753662109375,1.0032958984375,4.403839111328125,-4.53094482421875,-2.04864501953125,1,1.0,1.0,1.0,1.0,100.00
2021-08-26 21:10:25.077,1.0050687,0.0,0.0,1.4503957,0.8746807,0.0,0.0,1.0807788,0.9157426,0.0,0.0,1.1905838,0.91392404,0.0,0.0,0.8616552,0.8202196,0.0,0.0,0.86802757,829.6337,740.18317,698.2784,882.4176,751.8681,-0.1070556640625,0.03753662109375,1.0032958984375,4.403839111328125,-4.53094482421875,-2.04864501953125,1,1.0,1.0,1.0,1.0,100.00
2021-08-26 21:10:25.078,1.0050687,0.0,0.0,1.4503957,0.8746807,0.0,0.0,1.0807788,0.9157426,0.0,0.0,1.1905838,0.91392404,0.0,0.0,0.8616552,0.8202196,0.0,0.0,0.86802757,791.75824,734.94507,695.8608,863.0769,1145.5311,-0.1070556640625,0.03753662109375,1.0032958984375,4.403839111328125,-4.53094482421875,-2.04864501953125,1,1.0,1.0,1.0,1.0,100.00
2021-08-26 21:10:25.078,1.0050687,0.0,0.0,1.4503957,0.8746807,0.0,0.0,1.0807788,0.9157426,0.0,0.0,1.1905838,0.91392404,0.0,0.0,0.8616552,0.8202196,0.0,0.0,0.86802757,791.3553,734.5421,691.4286,850.989,1095.5677,-0.1070556640625,0.03753662109375,1.0032958984375,4.403839111328125,-4.53094482421875,-2.04864501953125,1,1.0,1.0,1.0,1.0,100.00
2021-08-26 21:10:25.078,1.0050687,0.0,0.0,1.4503957,0.8746807,0.0,0.0,1.0807788,0.9157426,0.0,0.0,1.1905838,0.91392404,0.0,0.0,0.8616552,0.8202196,0.0,0.0,0.86802757,819.15753,742.6007,680.14655,859.85345,724.87177,-0.1070556640625,0.03753662109375,1.0032958984375,4.403839111328125,-4.53094482421875,-2.04864501953125,1,1.0,1.0,1.0,1.0,100.00
2021-08-26 21:10:25.078,1.0050687,0.0,0.0,1.4503957,0.8746807,0.0,0.0,1.0807788,0.9157426,0.0,0.0,1.1905838,0.91392404,0.0,0.0,0.8616552,0.8202196,0.0,0.0,0.86802757,830.4396,741.79486,683.7729,885.64105,623.73627,-0.1070556640625,0.03753662109375,1.0032958984375,4.403839111328125,-4.53094482421875,-2.04864501953125,1,1.0,1.0,1.0,1.0,100.00
2021-08-26 21:10:25.078,1.0050687,0.0,0.0,1.4503957,0.8746807,0.0,0.0,1.0807788,0.9157426,0.0,0.0,1.1905838,0.91392404,0.0,0.0,0.8616552,0.8202196,0.0,0.0,0.86802757,815.9341,740.18317,690.6227,866.30035,742.6007,-0.1070556640625,0.03753662109375,1.0032958984375,4.403839111328125,-4.53094482421875,-2.04864501953125,1,1.0,1.0,1.0,1.0,100.00
2021-08-26 21:10:25.079,1.0050687,0.0,0.0,1.4503957,0.8746807,0.0,0.0,1.0807788,0.9157426,0.0,0.0,1.1905838,0.91392404,0.0,0.0,0.8616552,0.8202196,0.0,0.0,0.86802757,763.5531,736.1539,688.60803,883.22345,880.80585,-0.1070556640625,0.03753662109375,1.0032958984375,4.403839111328125,-4.53094482421875,-2.04864501953125,1,1.0,1.0,1.0,1.0,100.00
2021-08-26 21:10:25.107,1.0050687,0.0,0.0,1.4503957,0.8746807,0.0,0.0,1.0807788,0.9157426,0.0,0.0,1.1905838,0.91392404,0.0,0.0,0.8616552,0.8202196,0.0,0.0,0.86802757,821.1722,740.989,687.3993,888.86444,882.8205,-0.114013671875,0.0330810546875,1.00079345703125,4.044952392578125,-3.27484130859375,-1.353302001953125,1,1.0,1.0,1.0,1.0,100.00
2021-08-26 21:10:25.108,1.0050687,0.0,0.0,1.4503957,0.8746807,0.0,0.0,1.0807788,0.9157426,0.0,0.0,1.1905838,0.91392404,0.0,0.0,0.8616552,0.8202196,0.0,0.0,0.86802757,849.7802,753.0769,704.3223,889.67035,752.674,-0.114013671875,0.0330810546875,1.00079345703125,4.044952392578125,-3.27484130859375,-1.353302001953125,1,1.0,1.0,1.0,1.0,100.00
2021-08-26 21:10:25.108,1.0050687,0.0,0.0,1.4503957,0.8746807,0.0,0.0,1.0807788,0.9157426,0.0,0.0,1.1905838,0.91392404,0.0,0.0,0.8616552,0.8202196,0.0,0.0,0.86802757,837.6923,753.47986,704.7253,879.19415,612.8571,-0.114013671875,0.0330810546875,1.00079345703125,4.044952392578125,-3.27484130859375,-1.353302001953125,1,1.0,1.0,1.0,1.0,100.00
2021-08-26 21:10:25.108,1.0050687,0.0,0.0,1.4503957,0.8746807,0.0,0.0,1.0807788,0.9157426,0.0,0.0,1.1905838,0.91392404,0.0,0.0,0.8616552,0.8202196,0.0,0.0,0.86802757,825.6044,755.89746,687.3993,841.31866,579.81683,-0.114013671875,0.0330810546875,1.00079345703125,4.044952392578125,-3.27484130859375,-1.353302001953125,1,1.0,1.0,1.0,1.0,100.00
2021-08-26 21:10:25.109,1.0050687,0.0,0.0,1.4503957,0.8746807,0.0,0.0,1.0807788,0.9157426,0.0,0.0,1.1905838,0.91392404,0.0,0.0,0.8616552,0.8202196,0.0,0.0,0.86802757,788.1319,760.7326,696.26373,825.6044,750.65936,-0.114013671875,0.0330810546875,1.00079345703125,4.044952392578125,-3.27484130859375,-1.353302001953125,1,1.0,1.0,1.0,1.0,100.00
2021-08-26 21:10:25.110,1.0050687,0.0,0.0,1.4503957,0.8746807,0.0,0.0,1.0807788,0.9157426,0.0,0.0,1.1905838,0.91392404,0.0,0.0,0.8616552,0.8202196,0.0,0.0,0.86802757,834.87177,750.2564,700.293,849.3773,1036.7399,-0.114013671875,0.0330810546875,1.00079345703125,4.044952392578125,-3.27484130859375,-1.353302001953125,1,1.0,1.0,1.0,1.0,100.00
2021-08-26 21:10:25.110,1.0050687,0.0,0.0,1.4503957,0.8746807,0.0,0.0,1.0807788,0.9157426,0.0,0.0,1.1905838,0.91392404,0.0,0.0,0.8616552,0.8202196,0.0,0.0,0.86802757,811.0989,740.58606,688.20514,836.08057,1049.6337,-0.114013671875,0.0330810546875,1.00079345703125,4.044952392578125,-3.27484130859375,-1.353302001953125,1,1.0,1.0,1.0,1.0,100.00
2021-08-26 21:10:25.111,1.0050687,0.0,0.0,1.4503957,0.8746807,0.0,0.0,1.0807788,0.9157426,0.0,0.0,1.1905838,0.91392404,0.0,0.0,0.8616552,0.8202196,0.0,0.0,0.86802757,735.7509,728.9011,692.23444,842.52747,690.2198,-0.114013671875,0.0330810546875,1.00079345703125,4.044952392578125,-3.27484130859375,-1.353302001953125,1,1.0,1.0,1.0,1.0,100.00
2021-08-26 21:10:25.111,1.0050687,0.0,0.0,1.4503957,0.8746807,0.0,0.0,1.0807788,0.9157426,0.0,0.0,1.1905838,0.91392404,0.0,0.0,0.8616552,0.8202196,0.0,0.0,0.86802757,787.72894,739.7802,703.91943,873.5531,548.3883,-0.114013671875,0.0330810546875,1.00079345703125,4.044952392578125,-3.27484130859375,-1.353302001953125,1,1.0,1.0,1.0,1.0,100.00
2021-08-26 21:10:25.111,1.0050687,0.0,0.0,1.4503957,0.8746807,0.0,0.0,1.0807788,0.9157426,0.0,0.0,1.1905838,0.91392404,0.0,0.0,0.8616552,0.8202196,0.0,0.0,0.86802757,824.3956,751.4652,709.5604,890.87915,832.8571,-0.114013671875,0.0330810546875,1.00079345703125,4.044952392578125,-3.27484130859375,-1.353302001953125,1,1.0,1.0,1.0,1.0,100.00
2021-08-26 21:10:25.112,1.0050687,0.0,0.0,1.4503957,0.8746807,0.0,0.0,1.0807788,0.9157426,0.0,0.0,1.1905838,0.91392404,0.0,0.0,0.8616552,0.8202196,0.0,0.0,0.86802757,841.31866,755.4945,718.4249,892.8938,1021.4286,-0.114013671875,0.0330810546875,1.00079345703125,4.044952392578125,-3.27484130859375,-1.353302001953125,1,1.0,1.0,1.0,1.0,100.00
2021-08-26 21:10:25.112,1.0050687,0.0,0.0,1.4503957,0.8746807,0.0,0.0,1.0807788,0.9157426,0.0,0.0,1.1905838,0.91392404,0.0,0.0,0.8616552,0.8202196,0.0,0.0,0.86802757,796.99634,752.674,721.6484,817.1429,813.91943,-0.114013671875,0.0330810546875,1.00079345703125,4.044952392578125,-3.27484130859375,-1.353302001953125,1,1.0,1.0,1.0,1.0,100.00
2021-08-26 21:10:25.139,1.0050687,0.0,0.0,1.4503957,0.8746807,0.0,0.0,1.0807788,0.9157426,0.0,0.0,1.1905838,0.91392404,0.0,0.0,0.8616552,0.8202196,0.0,0.0,0.86802757,808.2784,756.30035,720.4396,799.41394,711.5751,-0.121337890625,0.03350830078125,0.99847412109375,4.463653564453125,-4.224395751953125,-1.65985107421875,1,1.0,1.0,1.0,1.0,100.00
2021-08-26 21:10:25.140,1.0050687,0.0,0.0,1.4503957,0.8746807,0.0,0.0,1.0807788,0.9157426,0.0,0.0,1.1905838,0.91392404,0.0,0.0,0.8616552,0.8202196,0.0,0.0,0.86802757,838.9011,761.53845,731.31866,923.91943,751.06226,-0.121337890625,0.03350830078125,0.99847412109375,4.463653564453125,-4.224395751953125,-1.65985107421875,1,1.0,1.0,1.0,1.0,100.00
2021-08-26 21:10:25.140,1.0050687,0.0,0.0,1.4503957,0.8746807,0.0,0.0,1.0807788,0.9157426,0.0,0.0,1.1905838,0.91392404,0.0,0.0,0.8616552,0.8202196,0.0,0.0,0.86802757,805.4579,749.0476,743.00366,941.6484,790.9524,-0.121337890625,0.03350830078125,0.99847412109375,4.463653564453125,-4.224395751953125,-1.65985107421875,1,1.0,1.0,1.0,1.0,100.00
2021-08-26 21:10:25.140,1.0050687,0.0,0.0,1.4503957,0.8746807,0.0,0.0,1.0807788,0.9157426,0.0,0.0,1.1905838,0.91392404,0.0,0.0,0.8616552,0.8202196,0.0,0.0,0.86802757,786.1172,749.85345,727.28937,876.3736,866.30035,-0.121337890625,0.03350830078125,0.99847412109375,4.463653564453125,-4.224395751953125,-1.65985107421875,1,1.0,1.0,1.0,1.0,100.00
2021-08-26 21:10:25.141,1.0050687,0.0,0.0,1.4503957,0.8746807,0.0,0.0,1.0807788,0.9157426,0.0,0.0,1.1905838,0.91392404,0.0,0.0,0.8616552,0.8202196,0.0,0.0,0.86802757,790.54944,762.3443,704.7253,844.5421,862.674,-0.121337890625,0.03350830078125,0.99847412109375,4.463653564453125,-4.224395751953125,-1.65985107421875,1,1.0,1.0,1.0,1.0,100.00
2021-08-26 21:10:25.141,1.0050687,0.0,0.0,1.4503957,0.8746807,0.0,0.0,1.0807788,0.9157426,0.0,0.0,1.1905838,0.91392404,0.0,0.0,0.8616552,0.8202196,0.0,0.0,0.86802757,828.8278,755.09155,706.7399,834.4689,810.696,-0.121337890625,0.03350830078125,0.99847412109375,4.463653564453125,-4.224395751953125,-1.65985107421875,1,1.0,1.0,1.0,1.0,100.00
2021-08-26 21:10:25.142,1.0050687,0.0,0.0,1.4503957,0.8746807,0.0,0.0,1.0807788,0.9157426,0.0,0.0,1.1905838,0.91392404,0.0,0.0,0.8616552,0.8202196,0.0,0.0,0.86802757,845.7509,768.3883,711.5751,921.9048,677.72894,-0.121337890625,0.03350830078125,0.99847412109375,4.463653564453125,-4.224395751953125,-1.65985107421875,1,1.0,1.0,1.0,1.0,100.00
2021-08-26 21:10:25.143,1.0050687,0.0,0.0,1.4503957,0.8746807,0.0,0.0,1.0807788,0.9157426,0.0,0.0,1.1905838,0.91392404,0.0,0.0,0.8616552,0.8202196,0.0,0.0,0.86802757,762.3443,782.8938,698.2784,909.41394,703.1135,-0.121337890625,0.03350830078125,0.99847412109375,4.463653564453125,-4.224395751953125,-1.65985107421875,1,1.0,1.0,1.0,1.0,100.00
2021-08-26 21:10:25.143,1.0050687,0.0,0.0,1.4503957,0.8746807,0.0,0.0,1.0807788,0.9157426,0.0,0.0,1.1905838,0.91392404,0.0,0.0,0.8616552,0.8202196,0.0,0.0,0.86802757,800.2198,768.7912,709.5604,892.49084,930.7692,-0.121337890625,0.03350830078125,0.99847412109375,4.463653564453125,-4.224395751953125,-1.65985107421875,1,1.0,1.0,1.0,1.0,100.00
2021-08-26 21:10:25.143,1.0050687,0.0,0.0,1.4503957,0.8746807,0.0,0.0,1.0807788,0.9157426,0.0,0.0,1.1905838,0.91392404,0.0,0.0,0.8616552,0.8202196,0.0,0.0,0.86802757,817.5458,744.21246,725.2747,869.5238,1074.2124,-0.121337890625,0.03350830078125,0.99847412109375,4.463653564453125,-4.224395751953125,-1.65985107421875,1,1.0,1.0,1.0,1.0,100.00
2021-08-26 21:10:25.144,1.0050687,0.0,0.0,1.4503957,0.8746807,0.0,0.0,1.0807788,0.9157426,0.0,0.0,1.1905838,0.91392404,0.0,0.0,0.8616552,0.8202196,0.0,0.0,0.86802757,823.9927,767.5824,702.71063,833.663,784.10254,-0.121337890625,0.03350830078125,0.99847412109375,4.463653564453125,-4.224395751953125,-1.65985107421875,1,1.0,1.0,1.0,1.0,100.00
2021-08-26 21:10:25.144,1.0050687,0.0,0.0,1.4503957,0.8746807,0.0,0.0,1.0807788,0.9157426,0.0,0.0,1.1905838,0.91392404,0.0,0.0,0.8616552,0.8202196,0.0,0.0,0.86802757,697.8755,775.64105,708.3516,881.2088,533.8828,-0.121337890625,0.03350830078125,0.99847412109375,4.463653564453125,-4.224395751953125,-1.65985107421875,1,1.0,1.0,1.0,1.0,100.00
2021-08-26 21:10:25.176,1.0050687,0.0,0.0,1.4503957,0.8746807,0.0,0.0,1.0807788,0.9157426,0.0,0.0,1.1905838,0.91392404,0.0,0.0,0.8616552,0.8202196,0.0,0.0,0.86802757,674.10254,732.1245,716.8132,859.45056,689.011,-0.121337890625,0.03350830078125,0.99847412109375,4.463653564453125,-4.224395751953125,-1.65985107421875,1,1.0,1.0,1.0,1.0,100.00
2021-08-26 21:10:25.176,1.0050687,0.0,0.0,1.4503957,0.8746807,0.0,0.0,1.0807788,0.9157426,0.0,0.0,1.1905838,0.91392404,0.0,0.0,0.8616552,0.8202196,0.0,0.0,0.86802757,871.53845,734.1392,718.4249,908.20514,906.99634,-0.121337890625,0.03350830078125,0.99847412109375,4.463653564453125,-4.224395751953125,-1.65985107421875,1,1.0,1.0,1.0,1.0,100.00
2021-08-26 21:10:25.176,1.0050687,0.0,0.0,1.4503957,0.8746807,0.0,0.0,1.0807788,0.9157426,0.0,0.0,1.1905838,0.91392404,0.0,0.0,0.8616552,0.8202196,0.0,0.0,0.86802757,855.42126,736.1539,740.58606,902.5641,852.6007,-0.121337890625,0.03350830078125,0.99847412109375,4.463653564453125,-4.224395751953125,-1.65985107421875,1,1.0,1.0,1.0,1.0,100.00
2021-08-26 21:10:25.177,1.0050687,0.0,0.0,1.4503957,0.8746807,0.0,0.0,1.0807788,0.9157426,0.0,0.0,1.1905838,0.91392404,0.0,0.0,0.8616552,0.8202196,0.0,0.0,0.86802757,755.09155,721.6484,745.82416,752.674,657.98535,-0.121337890625,0.03350830078125,0.99847412109375,4.463653564453125,-4.224395751953125,-1.65985107421875,1,1.0,1.0,1.0,1.0,100.00
2021-08-26 21:10:25.177,1.0050687,0.0,0.0,1.4503957,0.8746807,0.0,0.0,1.0807788,0.9157426,0.0,0.0,1.1905838,0.91392404,0.0,0.0,0.8616552,0.8202196,0.0,0.0,0.86802757,776.8498,711.5751,731.31866,847.76556,593.1135,-0.121337890625,0.03350830078125,0.99847412109375,4.463653564453125,-4.224395751953125,-1.65985107421875,1,1.0,1.0,1.0,1.0,100.00
2021-08-26 21:10:25.177,1.0050687,0.0,0.0,1.4503957,0.8746807,0.0,0.0,1.0807788,0.9157426,0.0,0.0,1.1905838,0.91392404,0.0,0.0,0.8616552,0.8202196,0.0,0.0,0.86802757,850.58606,712.381,728.49817,946.4835,799.81683,-0.121337890625,0.03350830078125,0.99847412109375,4.463653564453125,-4.224395751953125,-1.65985107421875,1,1.0,1.0,1.0,1.0,100.00
2021-08-26 21:10:25.177,1.0050687,0.0,0.0,1.4503957,0.8746807,0.0,0.0,1.0807788,0.9157426,0.0,0.0,1.1905838,0.91392404,0.0,0.0,0.8616552,0.8202196,0.0,0.0,0.86802757,831.6484,718.4249,740.18317,950.9158,1008.93774,-0.121337890625,0.03350830078125,0.99847412109375,4.463653564453125,-4.224395751953125,-1.65985107421875,1,1.0,1.0,1.0,1.0,100.00
2021-08-26 21:10:25.178,1.0050687,0.0,0.0,1.4503957,0.8746807,0.0,0.0,1.0807788,0.9157426,0.0,0.0,1.1905838,0.91392404,0.0,0.0,0.8616552,0.8202196,0.0,0.0,0.86802757,747.8388,736.55676,726.4835,839.304,896.52014,-0.121337890625,0.03350830078125,0.99847412109375,4.463653564453125,-4.224395751953125,-1.65985107421875,1,1.0,1.0,1.0,1.0,100.00
2021-08-26 21:10:25.178,1.0050687,0.0,0.0,1.4503957,0.8746807,0.0,0.0,1.0807788,0.9157426,0.0,0.0,1.1905838,0.91392404,0.0,0.0,0.8616552,0.8202196,0.0,0.0,0.86802757,789.34064,743.4066,709.5604,781.685,793.7729,-0.121337890625,0.03350830078125,0.99847412109375,4.463653564453125,-4.224395751953125,-1.65985107421875,1,1.0,1.0,1.0,1.0,100.00
2021-08-26 21:10:25.178,1.0050687,0.0,0.0,1.4503957,0.8746807,0.0,0.0,1.0807788,0.9157426,0.0,0.0,1.1905838,0.91392404,0.0,0.0,0.8616552,0.8202196,0.0,0.0,0.86802757,843.3333,726.8865,729.707,940.84247,828.4249,-0.121337890625,0.03350830078125,0.99847412109375,4.463653564453125,-4.224395751953125,-1.65985107421875,1,1.0,1.0,1.0,1.0,100.00
2021-08-26 21:10:25.178,1.0050687,0.0,0.0,1.4503957,0.8746807,0.0,0.0,1.0807788,0.9157426,0.0,0.0,1.1905838,0.91392404,0.0,0.0,0.8616552,0.8202196,0.0,0.0,0.86802757,807.8755,736.1539,729.707,837.6923,686.5934,-0.121337890625,0.03350830078125,0.99847412109375,4.463653564453125,-4.224395751953125,-1.65985107421875,1,1.0,1.0,1.0,1.0,100.00
2021-08-26 21:10:25.179,1.0050687,0.0,0.0,1.4503957,0.8746807,0.0,0.0,1.0807788,0.9157426,0.0,0.0,1.1905838,0.91392404,0.0,0.0,0.8616552,0.8202196,0.0,0.0,0.86802757,791.75824,717.619,759.5238,763.5531,825.2015,-0.121337890625,0.03350830078125,0.99847412109375,4.463653564453125,-4.224395751953125,-1.65985107421875,1,1.0,1.0,1.0,1.0,100.00
2021-08-26 21:10:25.209,1.0050687,0.0,0.0,1.4503957,0.8746807,0.0,0.0,1.0807788,0.9157426,0.0,0.0,1.1905838,0.91392404,0.0,0.0,0.8616552,0.8202196,0.0,0.0,0.86802757,772.8205,734.94507,714.3956,782.0879,956.1539,-0.1192626953125,0.03289794921875,0.99786376953125,4.6356201171875,-4.194488525390625,-2.519683837890625,1,1.0,1.0,1.0,1.0,100.00
2021-08-26 21:10:25.209,1.0050687,0.0,0.0,1.4503957,0.8746807,0.0,0.0,1.0807788,0.9157426,0.0,0.0,1.1905838,0.91392404,0.0,0.0,0.8616552,0.8202196,0.0,0.0,0.86802757,738.1685,778.46155,707.1429,896.9231,757.50916,-0.1192626953125,0.03289794921875,0.99786376953125,4.6356201171875,-4.194488525390625,-2.519683837890625,1,1.0,1.0,1.0,1.0,100.00
2021-08-26 21:10:25.210,1.0050687,0.0,0.0,1.4503957,0.8746807,0.0,0.0,1.0807788,0.9157426,0.0,0.0,1.1905838,0.91392404,0.0,0.0,0.8616552,0.8202196,0.0,0.0,0.86802757,809.0842,745.42126,740.58606,932.381,587.8755,-0.1192626953125,0.03289794921875,0.99786376953125,4.6356201171875,-4.194488525390625,-2.519683837890625,1,1.0,1.0,1.0,1.0,100.00
2021-08-26 21:10:25.210,1.0050687,0.0,0.0,1.4503957,0.8746807,0.0,0.0,1.0807788,0.9157426,0.0,0.0,1.1905838,0.91392404,0.0,0.0,0.8616552,0.8202196,0.0,0.0,0.86802757,861.4652,745.42126,715.2015,897.326,657.1795,-0.1192626953125,0.03289794921875,0.99786376953125,4.6356201171875,-4.194488525390625,-2.519683837890625,1,1.0,1.0,1.0,1.0,100.00
2021-08-26 21:10:25.210,1.0050687,0.0,0.0,1.4503957,0.8746807,0.0,0.0,1.0807788,0.9157426,0.0,0.0,1.1905838,0.91392404,0.0,0.0,0.8616552,0.8202196,0.0,0.0,0.86802757,745.82416,742.6007,732.9304,942.4542,927.9487,-0.1192626953125,0.03289794921875,0.99786376953125,4.6356201171875,-4.194488525390625,-2.519683837890625,1,1.0,1.0,1.0,1.0,100.00
2021-08-26 21:10:25.210,1.0050687,0.0,0.0,1.4503957,0.8746807,0.0,0.0,1.0807788,0.9157426,0.0,0.0,1.1905838,0.91392404,0.0,0.0,0.8616552,0.8202196,0.0,0.0,0.86802757,833.2601,744.21246,678.1319,808.68134,1067.3627,-0.1192626953125,0.03289794921875,0.99786376953125,4.6356201171875,-4.194488525390625,-2.519683837890625,1,1.0,1.0,1.0,1.0,100.00
2021-08-26 21:10:25.211,1.0050687,0.0,0.0,1.4503957,0.8746807,0.0,0.0,1.0807788,0.9157426,0.0,0.0,1.1905838,0.91392404,0.0,0.0,0.8616552,0.8202196,0.0,0.0,0.86802757,836.08057,765.16486,691.02563,728.0952,893.2967,-0.1192626953125,0.03289794921875,0.99786376953125,4.6356201171875,-4.194488525390625,-2.519683837890625,1,1.0,1.0,1.0,1.0,100.00
2021-08-26 21:10:25.211,1.0050687,0.0,0.0,1.4503957,0.8746807,0.0,0.0,1.0807788,0.9157426,0.0,0.0,1.1905838,0.91392404,0.0,0.0,0.8616552,0.8202196,0.0,0.0,0.86802757,779.67035,799.41394,689.011,855.42126,698.68134,-0.1192626953125,0.03289794921875,0.99786376953125,4.6356201171875,-4.194488525390625,-2.519683837890625,1,1.0,1.0,1.0,1.0,100.00
2021-08-26 21:10:25.213,1.0050687,0.0,0.0,1.4503957,0.8746807,0.0,0.0,1.0807788,0.9157426,0.0,0.0,1.1905838,0.91392404,0.0,0.0,0.8616552,0.8202196,0.0,0.0,0.86802757,847.3626,766.77655,710.7692,921.0989,929.15753,-0.1192626953125,0.03289794921875,0.99786376953125,4.6356201171875,-4.194488525390625,-2.519683837890625,1,1.0,1.0,1.0,1.0,100.00
2021-08-26 21:10:25.213,1.0050687,0.0,0.0,1.4503957,0.8746807,0.0,0.0,1.0807788,0.9157426,0.0,0.0,1.1905838,0.91392404,0.0,0.0,0.8616552,0.8202196,0.0,0.0,0.86802757,825.2015,746.63007,792.5641,903.36993,1135.8608,-0.1192626953125,0.03289794921875,0.99786376953125,4.6356201171875,-4.194488525390625,-2.519683837890625,1,1.0,1.0,1.0,1.0,100.00
2021-08-26 21:10:25.213,1.0050687,0.0,0.0,1.4503957,0.8746807,0.0,0.0,1.0807788,0.9157426,0.0,0.0,1.1905838,0.91392404,0.0,0.0,0.8616552,0.8202196,0.0,0.0,0.86802757,703.91943,737.3626,722.8571,906.5934,938.8278,-0.1192626953125,0.03289794921875,0.99786376953125,4.6356201171875,-4.194488525390625,-2.519683837890625,1,1.0,1.0,1.0,1.0,100.00
2021-08-26 21:10:25.213,1.0050687,0.0,0.0,1.4503957,0.8746807,0.0,0.0,1.0807788,0.9157426,0.0,0.0,1.1905838,0.91392404,0.0,0.0,0.8616552,0.8202196,0.0,0.0,0.86802757,697.8755,764.35895,681.3553,745.0183,754.68866,-0.1192626953125,0.03289794921875,0.99786376953125,4.6356201171875,-4.194488525390625,-2.519683837890625,1,1.0,1.0,1.0,1.0,100.00
2021-08-26 21:10:25.269,1.0050687,0.0,0.0,1.4503957,0.8746807,0.0,0.0,1.0807788,0.9157426,0.0,0.0,1.1905838,0.91392404,0.0,0.0,0.8616552,0.8202196,0.0,0.0,0.86802757,859.85345,767.98535,676.1172,844.5421,660.0,-0.12091064453125,0.0369873046875,1.00006103515625,5.33843994140625,-4.149627685546875,-3.0804443359375,1,1.0,1.0,1.0,1.0,100.00
2021-08-26 21:10:25.270,1.0050687,0.0,0.0,1.4503957,0.8746807,0.0,0.0,1.0807788,0.9157426,0.0,0.0,1.1905838,0.91392404,0.0,0.0,0.8616552,0.8202196,0.0,0.0,0.86802757,991.6117,740.989,738.97437,991.2088,646.7033,-0.12091064453125,0.0369873046875,1.00006103515625,5.33843994140625,-4.149627685546875,-3.0804443359375,1,1.0,1.0,1.0,1.0,100.00
2021-08-26 21:10:25.270,1.0050687,0.0,0.0,1.4503957,0.8746807,0.0,0.0,1.0807788,0.9157426,0.0,0.0,1.1905838,0.91392404,0.0,0.0,0.8616552,0.8202196,0.0,0.0,0.86802757,883.22345,725.2747,751.4652,869.92676,791.3553,-0.12091064453125,0.0369873046875,1.00006103515625,5.33843994140625,-4.149627685546875,-3.0804443359375,1,1.0,1.0,1.0,1.0,100.00
2021-08-26 21:10:25.270,1.0050687,0.0,0.0,1.4503957,0.8746807,0.0,0.0,1.0807788,0.9157426,0.0,0.0,1.1905838,0.91392404,0.0,0.0,0.8616552,0.8202196,0.0,0.0,0.86802757,691.8315,768.7912,705.12823,892.8938,929.15753,-0.12091064453125,0.0369873046875,1.00006103515625,5.33843994140625,-4.149627685546875,-3.0804443359375,1,1.0,1.0,1.0,1.0,100.00
2021-08-26 21:10:25.271,1.0050687,0.0,0.0,1.4503957,0.8746807,0.0,0.0,1.0807788,0.9157426,0.0,0.0,1.1905838,0.91392404,0.0,0.0,0.8616552,0.8202196,0.0,0.0,0.86802757,734.5421,767.5824,687.8022,745.0183,821.5751,-0.12091064453125,0.0369873046875,1.00006103515625,5.33843994140625,-4.149627685546875,-3.0804443359375,1,1.0,1.0,1.0,1.0,100.00
2021-08-26 21:10:25.271,1.0050687,0.0,0.0,1.4503957,0.8746807,0.0,0.0,1.0807788,0.9157426,0.0,0.0,1.1905838,0.91392404,0.0,0.0,0.8616552,0.8202196,0.0,0.0,0.86802757,896.1172,755.4945,690.6227,863.0769,701.9048,-0.12091064453125,0.0369873046875,1.00006103515625,5.33843994140625,-4.149627685546875,-3.0804443359375,1,1.0,1.0,1.0,1.0,100.00
2021-08-26 21:10:25.271,1.0050687,0.0,0.0,1.4503957,0.8746807,0.0,0.0,1.0807788,0.9157426,0.0,0.0,1.1905838,0.91392404,0.0,0.0,0.8616552,0.8202196,0.0,0.0,0.86802757,823.5897,771.6117,700.293,1018.20514,704.7253,-0.12091064453125,0.0369873046875,1.00006103515625,5.33843994140625,-4.149627685546875,-3.0804443359375,1,1.0,1.0,1.0,1.0,100.00
2021-08-26 21:10:25.272,1.0050687,0.0,0.0,1.4503957,0.8746807,0.0,0.0,1.0807788,0.9157426,0.0,0.0,1.1905838,0.91392404,0.0,0.0,0.8616552,0.8202196,0.0,0.0,0.86802757,654.35895,742.6007,750.2564,829.2308,879.19415,-0.12091064453125,0.0369873046875,1.00006103515625,5.33843994140625,-4.149627685546875,-3.0804443359375,1,1.0,1.0,1.0,1.0,100.00
2021-08-26 21:10:25.272,1.0050687,0.0,0.0,1.4503957,0.8746807,0.0,0.0,1.0807788,0.9157426,0.0,0.0,1.1905838,0.91392404,0.0,0.0,0.8616552,0.8202196,0.0,0.0,0.86802757,778.0586,720.4396,790.9524,839.707,1140.2931,-0.12091064453125,0.0369873046875,1.00006103515625,5.33843994140625,-4.149627685546875,-3.0804443359375,1,1.0,1.0,1.0,1.0,100.00
2021-08-26 21:10:25.272,1.0050687,0.0,0.0,1.4503957,0.8746807,0.0,0.0,1.0807788,0.9157426,0.0,0.0,1.1905838,0.91392404,0.0,0.0,0.8616552,0.8202196,0.0,0.0,0.86802757,811.9048,780.4762,796.99634,896.9231,888.46155,-0.12091064453125,0.0369873046875,1.00006103515625,5.33843994140625,-4.149627685546875,-3.0804443359375,1,1.0,1.0,1.0,1.0,100.00
2021-08-26 21:10:25.273,1.0050687,0.0,0.0,1.4503957,0.8746807,0.0,0.0,1.0807788,0.9157426,0.0,0.0,1.1905838,0.91392404,0.0,0.0,0.8616552,0.8202196,0.0,0.0,0.86802757,806.6667,775.2381,714.3956,991.6117,558.46155,-0.12091064453125,0.0369873046875,1.00006103515625,5.33843994140625,-4.149627685546875,-3.0804443359375,1,1.0,1.0,1.0,1.0,100.00
2021-08-26 21:10:25.273,1.0050687,0.0,0.0,1.4503957,0.8746807,0.0,0.0,1.0807788,0.9157426,0.0,0.0,1.1905838,0.91392404,0.0,0.0,0.8616552,0.8202196,0.0,0.0,0.86802757,1020.6227,718.022,688.60803,914.65204,643.47986,-0.12091064453125,0.0369873046875,1.00006103515625,5.33843994140625,-4.149627685546875,-3.0804443359375,1,1.0,1.0,1.0,1.0,100.00
2021-08-26 21:10:25.309,1.0050687,0.0,0.0,1.4503957,0.8746807,0.0,0.0,1.0807788,0.9157426,0.0,0.0,1.1905838,0.91392404,0.0,0.0,0.8616552,0.8202196,0.0,0.0,0.86802757,862.674,811.50183,672.49084,858.24176,782.49084,-0.11572265625,0.03570556640625,1.002197265625,4.88983154296875,-5.0543212890625,-2.22808837890625,1,1.0,1.0,1.0,1.0,100.00
2021-08-26 21:10:25.309,1.0050687,0.0,0.0,1.4503957,0.8746807,0.0,0.0,1.0807788,0.9157426,0.0,0.0,1.1905838,0.91392404,0.0,0.0,0.8616552,0.8202196,0.0,0.0,0.86802757,837.6923,759.5238,711.1722,1061.3187,823.9927,-0.11572265625,0.03570556640625,1.002197265625,4.88983154296875,-5.0543212890625,-2.22808837890625,1,1.0,1.0,1.0,1.0,100.00
2021-08-26 21:10:25.309,1.0050687,0.0,0.0,1.4503957,0.8746807,0.0,0.0,1.0807788,0.9157426,0.0,0.0,1.1905838,0.91392404,0.0,0.0,0.8616552,0.8202196,0.0,0.0,0.86802757,900.9524,717.619,713.1868,1112.8938,806.26373,-0.11572265625,0.03570556640625,1.002197265625,4.88983154296875,-5.0543212890625,-2.22808837890625,1,1.0,1.0,1.0,1.0,100.00
2021-08-26 21:10:25.310,1.0050687,0.0,0.0,1.4503957,0.8746807,0.0,0.0,1.0807788,0.9157426,0.0,0.0,1.1905838,0.91392404,0.0,0.0,0.8616552,0.8202196,0.0,0.0,0.86802757,822.381,734.1392,720.4396,973.47986,675.7143,-0.11572265625,0.03570556640625,1.002197265625,4.88983154296875,-5.0543212890625,-2.22808837890625,1,1.0,1.0,1.0,1.0,100.00
2021-08-26 21:10:25.310,1.0050687,0.0,0.0,1.4503957,0.8746807,0.0,0.0,1.0807788,0.9157426,0.0,0.0,1.1905838,0.91392404,0.0,0.0,0.8616552,0.8202196,0.0,0.0,0.86802757,789.34064,672.0879,783.2967,849.3773,542.74725,-0.11572265625,0.03570556640625,1.002197265625,4.88983154296875,-5.0543212890625,-2.22808837890625,1,1.0,1.0,1.0,1.0,100.00
2021-08-26 21:10:25.310,1.0050687,0.0,0.0,1.4503957,0.8746807,0.0,0.0,1.0807788,0.9157426,0.0,0.0,1.1905838,0.91392404,0.0,0.0,0.8616552,0.8202196,0.0,0.0,0.86802757,897.326,705.9341,732.9304,866.30035,714.7985,-0.11572265625,0.03570556640625,1.002197265625,4.88983154296875,-5.0543212890625,-2.22808837890625,1,1.0,1.0,1.0,1.0,100.00
2021-08-26 21:10:25.311,1.0050687,0.0,0.0,1.4503957,0.8746807,0.0,0.0,1.0807788,0.9157426,0.0,0.0,1.1905838,0.91392404,0.0,0.0,0.8616552,0.8202196,0.0,0.0,0.86802757,975.89746,732.1245,676.1172,1026.2638,1038.7546,-0.11572265625,0.03570556640625,1.002197265625,4.88983154296875,-5.0543212890625,-2.22808837890625,1,1.0,1.0,1.0,1.0,100.00
2021-08-26 21:10:25.311,1.0050687,0.0,0.0,1.4503957,0.8746807,0.0,0.0,1.0807788,0.9157426,0.0,0.0,1.1905838,0.91392404,0.0,0.0,0.8616552,0.8202196,0.0,0.0,0.86802757,837.28937,734.94507,765.56775,929.5604,1130.6227,-0.11572265625,0.03570556640625,1.002197265625,4.88983154296875,-5.0543212890625,-2.22808837890625,1,1.0,1.0,1.0,1.0,100.00
2021-08-26 21:10:25.311,1.0050687,0.0,0.0,1.4503957,0.8746807,0.0,0.0,1.0807788,0.9157426,0.0,0.0,1.1905838,0.91392404,0.0,0.0,0.8616552,0.8202196,0.0,0.0,0.86802757,753.8828,726.08057,782.8938,877.1795,798.20514,-0.11572265625,0.03570556640625,1.002197265625,4.88983154296875,-5.0543212890625,-2.22808837890625,1,1.0,1.0,1.0,1.0,100.00
2021-08-26 21:10:25.313,,,,,,,,,,,,,,,,,,,,,,,,,,,,,,,,,,,,,,/muse/elements/jaw_clench
2021-08-26 21:10:25.311,1.0050687,0.0,0.0,1.4503957,0.8746807,0.0,0.0,1.0807788,0.9157426,0.0,0.0,1.1905838,0.91392404,0.0,0.0,0.8616552,0.8202196,0.0,0.0,0.86802757,923.91943,710.3663,693.0403,994.0293,518.5714,-0.11572265625,0.03570556640625,1.002197265625,4.88983154296875,-5.0543212890625,-2.22808837890625,1,1.0,1.0,1.0,1.0,100.00
2021-08-26 21:10:25.313,1.0050687,0.0,0.0,1.4503957,0.8746807,0.0,0.0,1.0807788,0.9157426,0.0,0.0,1.1905838,0.91392404,0.0,0.0,0.8616552,0.8202196,0.0,0.0,0.86802757,896.9231,729.304,697.8755,953.73627,604.7985,-0.11572265625,0.03570556640625,1.002197265625,4.88983154296875,-5.0543212890625,-2.22808837890625,1,1.0,1.0,1.0,1.0,100.00
2021-08-26 21:10:25.314,1.0050687,0.0,0.0,1.4503957,0.8746807,0.0,0.0,1.0807788,0.9157426,0.0,0.0,1.1905838,0.91392404,0.0,0.0,0.8616552,0.8202196,0.0,0.0,0.86802757,798.20514,732.52747,747.03296,1019.41394,863.47986,-0.11572265625,0.03570556640625,1.002197265625,4.88983154296875,-5.0543212890625,-2.22808837890625,1,1.0,1.0,1.0,1.0,100.00
2021-08-26 21:10:25.339,1.0050687,0.0,0.0,1.4503957,0.8746807,0.0,0.0,1.0807788,0.9157426,0.0,0.0,1.1905838,0.91392404,0.0,0.0,0.8616552,0.8202196,0.0,0.0,0.86802757,885.2381,737.76556,728.0952,1015.38464,895.7143,-0.10638427734375,0.03173828125,1.00091552734375,4.149627685546875,-6.572113037109375,-1.375732421875,1,1.0,1.0,1.0,1.0,100.00
2021-08-26 21:10:25.340,1.0050687,0.0,0.0,1.4503957,0.8746807,0.0,0.0,1.0807788,0.9157426,0.0,0.0,1.1905838,0.91392404,0.0,0.0,0.8616552,0.8202196,0.0,0.0,0.86802757,878.3883,733.3333,722.0513,1023.8461,678.5348,-0.10638427734375,0.03173828125,1.00091552734375,4.149627685546875,-6.572113037109375,-1.375732421875,1,1.0,1.0,1.0,1.0,100.00
2021-08-26 21:10:25.340,1.0050687,0.0,0.0,1.4503957,0.8746807,0.0,0.0,1.0807788,0.9157426,0.0,0.0,1.1905838,0.91392404,0.0,0.0,0.8616552,0.8202196,0.0,0.0,0.86802757,927.5458,731.7216,740.989,993.22345,588.2784,-0.10638427734375,0.03173828125,1.00091552734375,4.149627685546875,-6.572113037109375,-1.375732421875,1,1.0,1.0,1.0,1.0,100.00
2021-08-26 21:10:25.341,1.0050687,0.0,0.0,1.4503957,0.8746807,0.0,0.0,1.0807788,0.9157426,0.0,0.0,1.1905838,0.91392404,0.0,0.0,0.8616552,0.8202196,0.0,0.0,0.86802757,838.9011,738.97437,696.26373,904.17584,693.44324,-0.10638427734375,0.03173828125,1.00091552734375,4.149627685546875,-6.572113037109375,-1.375732421875,1,1.0,1.0,1.0,1.0,100.00
2021-08-26 21:10:25.341,1.0050687,0.0,0.0,1.4503957,0.8746807,0.0,0.0,1.0807788,0.9157426,0.0,0.0,1.1905838,0.91392404,0.0,0.0,0.8616552,0.8202196,0.0,0.0,0.86802757,676.9231,744.21246,724.87177,830.4396,833.2601,-0.10638427734375,0.03173828125,1.00091552734375,4.149627685546875,-6.572113037109375,-1.375732421875,1,1.0,1.0,1.0,1.0,100.00
2021-08-26 21:10:25.341,1.0050687,0.0,0.0,1.4503957,0.8746807,0.0,0.0,1.0807788,0.9157426,0.0,0.0,1.1905838,0.91392404,0.0,0.0,0.8616552,0.8202196,0.0,0.0,0.86802757,888.86444,702.71063,780.4762,879.19415,879.59705,-0.10638427734375,0.03173828125,1.00091552734375,4.149627685546875,-6.572113037109375,-1.375732421875,1,1.0,1.0,1.0,1.0,100.00
2021-08-26 21:10:25.342,1.0050687,0.0,0.0,1.4503957,0.8746807,0.0,0.0,1.0807788,0.9157426,0.0,0.0,1.1905838,0.91392404,0.0,0.0,0.8616552,0.8202196,0.0,0.0,0.86802757,997.6557,740.18317,732.9304,1004.5055,882.01465,-0.10638427734375,0.03173828125,1.00091552734375,4.149627685546875,-6.572113037109375,-1.375732421875,1,1.0,1.0,1.0,1.0,100.00
2021-08-26 21:10:25.342,1.0050687,0.0,0.0,1.4503957,0.8746807,0.0,0.0,1.0807788,0.9157426,0.0,0.0,1.1905838,0.91392404,0.0,0.0,0.8616552,0.8202196,0.0,0.0,0.86802757,856.2271,749.45056,775.2381,985.56775,861.8681,-0.10638427734375,0.03173828125,1.00091552734375,4.149627685546875,-6.572113037109375,-1.375732421875,1,1.0,1.0,1.0,1.0,100.00
2021-08-26 21:10:25.342,1.0050687,0.0,0.0,1.4503957,0.8746807,0.0,0.0,1.0807788,0.9157426,0.0,0.0,1.1905838,0.91392404,0.0,0.0,0.8616552,0.8202196,0.0,0.0,0.86802757,722.4542,717.619,754.68866,996.4469,671.685,-0.10638427734375,0.03173828125,1.00091552734375,4.149627685546875,-6.572113037109375,-1.375732421875,1,1.0,1.0,1.0,1.0,100.00
2021-08-26 21:10:25.342,1.0050687,0.0,0.0,1.4503957,0.8746807,0.0,0.0,1.0807788,0.9157426,0.0,0.0,1.1905838,0.91392404,0.0,0.0,0.8616552,0.8202196,0.0,0.0,0.86802757,850.989,749.85345,699.89014,985.56775,789.34064,-0.10638427734375,0.03173828125,1.00091552734375,4.149627685546875,-6.572113037109375,-1.375732421875,1,1.0,1.0,1.0,1.0,100.00
2021-08-26 21:10:25.343,1.0050687,0.0,0.0,1.4503957,0.8746807,0.0,0.0,1.0807788,0.9157426,0.0,0.0,1.1905838,0.91392404,0.0,0.0,0.8616552,0.8202196,0.0,0.0,0.86802757,896.1172,780.87915,768.7912,819.5604,948.49817,-0.10638427734375,0.03173828125,1.00091552734375,4.149627685546875,-6.572113037109375,-1.375732421875,1,1.0,1.0,1.0,1.0,100.00
2021-08-26 21:10:25.343,1.0050687,0.0,0.0,1.4503957,0.8746807,0.0,0.0,1.0807788,0.9157426,0.0,0.0,1.1905838,0.91392404,0.0,0.0,0.8616552,0.8202196,0.0,0.0,0.86802757,782.8938,770.40295,753.8828,919.4872,740.18317,-0.10638427734375,0.03173828125,1.00091552734375,4.149627685546875,-6.572113037109375,-1.375732421875,1,1.0,1.0,1.0,1.0,100.00
2021-08-26 21:10:25.409,1.0050687,0.0,0.0,1.4503957,0.8746807,0.0,0.0,1.0807788,0.9157426,0.0,0.0,1.1905838,0.91392404,0.0,0.0,0.8616552,0.8202196,0.0,0.0,0.86802757,780.87915,760.32965,759.12085,969.0476,542.3443,-0.10638427734375,0.03173828125,1.00091552734375,4.149627685546875,-6.572113037109375,-1.375732421875,1,1.0,1.0,1.0,1.0,100.00
2021-08-26 21:10:25.410,1.0050687,0.0,0.0,1.4503957,0.8746807,0.0,0.0,1.0807788,0.9157426,0.0,0.0,1.1905838,0.91392404,0.0,0.0,0.8616552,0.8202196,0.0,0.0,0.86802757,813.1135,733.73627,805.05493,851.39197,579.81683,-0.10638427734375,0.03173828125,1.00091552734375,4.149627685546875,-6.572113037109375,-1.375732421875,1,1.0,1.0,1.0,1.0,100.00
2021-08-26 21:10:25.410,1.0050687,0.0,0.0,1.4503957,0.8746807,0.0,0.0,1.0807788,0.9157426,0.0,0.0,1.1905838,0.91392404,0.0,0.0,0.8616552,0.8202196,0.0,0.0,0.86802757,859.85345,765.16486,731.31866,957.3626,832.0513,-0.10638427734375,0.03173828125,1.00091552734375,4.149627685546875,-6.572113037109375,-1.375732421875,1,1.0,1.0,1.0,1.0,100.00
2021-08-26 21:10:25.410,1.0050687,0.0,0.0,1.4503957,0.8746807,0.0,0.0,1.0807788,0.9157426,0.0,0.0,1.1905838,0.91392404,0.0,0.0,0.8616552,0.8202196,0.0,0.0,0.86802757,776.04395,755.89746,777.6557,950.9158,954.5421,-0.10638427734375,0.03173828125,1.00091552734375,4.149627685546875,-6.572113037109375,-1.375732421875,1,1.0,1.0,1.0,1.0,100.00
2021-08-26 21:10:25.411,1.0050687,0.0,0.0,1.4503957,0.8746807,0.0,0.0,1.0807788,0.9157426,0.0,0.0,1.1905838,0.91392404,0.0,0.0,0.8616552,0.8202196,0.0,0.0,0.86802757,863.47986,758.71796,738.5714,882.01465,744.61536,-0.10638427734375,0.03173828125,1.00091552734375,4.149627685546875,-6.572113037109375,-1.375732421875,1,1.0,1.0,1.0,1.0,100.00
2021-08-26 21:10:25.411,1.0050687,0.0,0.0,1.4503957,0.8746807,0.0,0.0,1.0807788,0.9157426,0.0,0.0,1.1905838,0.91392404,0.0,0.0,0.8616552,0.8202196,0.0,0.0,0.86802757,928.7546,790.9524,688.20514,910.2198,635.0183,-0.10638427734375,0.03173828125,1.00091552734375,4.149627685546875,-6.572113037109375,-1.375732421875,1,1.0,1.0,1.0,1.0,100.00
2021-08-26 21:10:25.411,1.0050687,0.0,0.0,1.4503957,0.8746807,0.0,0.0,1.0807788,0.9157426,0.0,0.0,1.1905838,0.91392404,0.0,0.0,0.8616552,0.8202196,0.0,0.0,0.86802757,757.1062,772.4176,773.22345,881.2088,915.8608,-0.10638427734375,0.03173828125,1.00091552734375,4.149627685546875,-6.572113037109375,-1.375732421875,1,1.0,1.0,1.0,1.0,100.00
2021-08-26 21:10:25.411,1.0050687,0.0,0.0,1.4503957,0.8746807,0.0,0.0,1.0807788,0.9157426,0.0,0.0,1.1905838,0.91392404,0.0,0.0,0.8616552,0.8202196,0.0,0.0,0.86802757,695.05493,796.99634,743.00366,837.6923,1139.4872,-0.10638427734375,0.03173828125,1.00091552734375,4.149627685546875,-6.572113037109375,-1.375732421875,1,1.0,1.0,1.0,1.0,100.00
2021-08-26 21:10:25.412,1.0050687,0.0,0.0,1.4503957,0.8746807,0.0,0.0,1.0807788,0.9157426,0.0,0.0,1.1905838,0.91392404,0.0,0.0,0.8616552,0.8202196,0.0,0.0,0.86802757,764.35895,796.1905,709.9634,975.89746,1008.1319,-0.10638427734375,0.03173828125,1.00091552734375,4.149627685546875,-6.572113037109375,-1.375732421875,1,1.0,1.0,1.0,1.0,100.00
2021-08-26 21:10:25.412,1.0050687,0.0,0.0,1.4503957,0.8746807,0.0,0.0,1.0807788,0.9157426,0.0,0.0,1.1905838,0.91392404,0.0,0.0,0.8616552,0.8202196,0.0,0.0,0.86802757,922.71063,760.32965,773.22345,912.6374,832.0513,-0.10638427734375,0.03173828125,1.00091552734375,4.149627685546875,-6.572113037109375,-1.375732421875,1,1.0,1.0,1.0,1.0,100.00
2021-08-26 21:10:25.412,1.0050687,0.0,0.0,1.4503957,0.8746807,0.0,0.0,1.0807788,0.9157426,0.0,0.0,1.1905838,0.91392404,0.0,0.0,0.8616552,0.8202196,0.0,0.0,0.86802757,848.5714,803.44324,759.5238,801.4286,674.10254,-0.10638427734375,0.03173828125,1.00091552734375,4.149627685546875,-6.572113037109375,-1.375732421875,1,1.0,1.0,1.0,1.0,100.00
2021-08-26 21:10:25.413,1.0050687,0.0,0.0,1.4503957,0.8746807,0.0,0.0,1.0807788,0.9157426,0.0,0.0,1.1905838,0.91392404,0.0,0.0,0.8616552,0.8202196,0.0,0.0,0.86802757,790.54944,799.011,731.7216,904.57874,602.381,-0.10638427734375,0.03173828125,1.00091552734375,4.149627685546875,-6.572113037109375,-1.375732421875,1,1.0,1.0,1.0,1.0,100.00
2021-08-26 21:10:25.476,1.0050687,0.0,0.0,1.4503957,0.8746807,0.0,0.0,1.0807788,0.9157426,0.0,0.0,1.1905838,0.91392404,0.0,0.0,0.8616552,0.8202196,0.0,0.0,0.86802757,830.0366,745.82416,791.75824,930.3663,741.39197,-0.108154296875,0.03289794921875,1.001953125,4.882354736328125,-6.781463623046875,-0.740203857421875,1,1.0,1.0,1.0,1.0,100.00
2021-08-26 21:10:25.476,1.0050687,0.0,0.0,1.4503957,0.8746807,0.0,0.0,1.0807788,0.9157426,0.0,0.0,1.1905838,0.91392404,0.0,0.0,0.8616552,0.8202196,0.0,0.0,0.86802757,750.2564,783.69965,747.03296,976.7033,934.3956,-0.108154296875,0.03289794921875,1.001953125,4.882354736328125,-6.781463623046875,-0.740203857421875,1,1.0,1.0,1.0,1.0,100.00
2021-08-26 21:10:25.477,1.0050687,0.0,0.0,1.4503957,0.8746807,0.0,0.0,1.0807788,0.9157426,0.0,0.0,1.1905838,0.91392404,0.0,0.0,0.8616552,0.8202196,0.0,0.0,0.86802757,792.96704,804.2491,753.8828,933.9927,894.10254,-0.108154296875,0.03289794921875,1.001953125,4.882354736328125,-6.781463623046875,-0.740203857421875,1,1.0,1.0,1.0,1.0,100.00
2021-08-26 21:10:25.477,1.0050687,0.0,0.0,1.4503957,0.8746807,0.0,0.0,1.0807788,0.9157426,0.0,0.0,1.1905838,0.91392404,0.0,0.0,0.8616552,0.8202196,0.0,0.0,0.86802757,787.72894,794.57874,774.43225,804.65204,678.93774,-0.108154296875,0.03289794921875,1.001953125,4.882354736328125,-6.781463623046875,-0.740203857421875,1,1.0,1.0,1.0,1.0,100.00
2021-08-26 21:10:25.477,1.0050687,0.0,0.0,1.4503957,0.8746807,0.0,0.0,1.0807788,0.9157426,0.0,0.0,1.1905838,0.91392404,0.0,0.0,0.8616552,0.8202196,0.0,0.0,0.86802757,878.3883,832.0513,726.08057,874.7619,598.3516,-0.108154296875,0.03289794921875,1.001953125,4.882354736328125,-6.781463623046875,-0.740203857421875,1,1.0,1.0,1.0,1.0,100.00
2021-08-26 21:10:25.477,1.0050687,0.0,0.0,1.4503957,0.8746807,0.0,0.0,1.0807788,0.9157426,0.0,0.0,1.1905838,0.91392404,0.0,0.0,0.8616552,0.8202196,0.0,0.0,0.86802757,916.26373,811.0989,750.65936,1004.90845,863.0769,-0.108154296875,0.03289794921875,1.001953125,4.882354736328125,-6.781463623046875,-0.740203857421875,1,1.0,1.0,1.0,1.0,100.00
2021-08-26 21:10:25.478,1.0050687,0.0,0.0,1.4503957,0.8746807,0.0,0.0,1.0807788,0.9157426,0.0,0.0,1.1905838,0.91392404,0.0,0.0,0.8616552,0.8202196,0.0,0.0,0.86802757,832.0513,770.0,754.2857,957.3626,1156.8132,-0.108154296875,0.03289794921875,1.001953125,4.882354736328125,-6.781463623046875,-0.740203857421875,1,1.0,1.0,1.0,1.0,100.00
2021-08-26 21:10:25.478,1.0050687,0.0,0.0,1.4503957,0.8746807,0.0,0.0,1.0807788,0.9157426,0.0,0.0,1.1905838,0.91392404,0.0,0.0,0.8616552,0.8202196,0.0,0.0,0.86802757,846.1539,781.28204,779.67035,892.8938,1040.7693,-0.108154296875,0.03289794921875,1.001953125,4.882354736328125,-6.781463623046875,-0.740203857421875,1,1.0,1.0,1.0,1.0,100.00
2021-08-26 21:10:25.478,1.0050687,0.0,0.0,1.4503957,0.8746807,0.0,0.0,1.0807788,0.9157426,0.0,0.0,1.1905838,0.91392404,0.0,0.0,0.8616552,0.8202196,0.0,0.0,0.86802757,771.6117,785.31134,801.4286,845.7509,676.1172,-0.108154296875,0.03289794921875,1.001953125,4.882354736328125,-6.781463623046875,-0.740203857421875,1,1.0,1.0,1.0,1.0,100.00
2021-08-26 21:10:25.478,1.0050687,0.0,0.0,1.4503957,0.8746807,0.0,0.0,1.0807788,0.9157426,0.0,0.0,1.1905838,0.91392404,0.0,0.0,0.8616552,0.8202196,0.0,0.0,0.86802757,693.8461,790.54944,791.75824,815.5311,626.55676,-0.108154296875,0.03289794921875,1.001953125,4.882354736328125,-6.781463623046875,-0.740203857421875,1,1.0,1.0,1.0,1.0,100.00
2021-08-26 21:10:25.479,1.0050687,0.0,0.0,1.4503957,0.8746807,0.0,0.0,1.0807788,0.9157426,0.0,0.0,1.1905838,0.91392404,0.0,0.0,0.8616552,0.8202196,0.0,0.0,0.86802757,820.3663,758.315,813.91943,918.2784,906.1905,-0.108154296875,0.03289794921875,1.001953125,4.882354736328125,-6.781463623046875,-0.740203857421875,1,1.0,1.0,1.0,1.0,100.00
2021-08-26 21:10:25.479,1.0050687,0.0,0.0,1.4503957,0.8746807,0.0,0.0,1.0807788,0.9157426,0.0,0.0,1.1905838,0.91392404,0.0,0.0,0.8616552,0.8202196,0.0,0.0,0.86802757,842.9304,764.35895,844.5421,876.77655,922.71063,-0.108154296875,0.03289794921875,1.001953125,4.882354736328125,-6.781463623046875,-0.740203857421875,1,1.0,1.0,1.0,1.0,100.00
2021-08-26 21:10:25.507,1.0050687,0.0,0.0,1.4503957,0.8746807,0.0,0.0,1.0807788,0.9157426,0.0,0.0,1.1905838,0.91392404,0.0,0.0,0.8616552,0.8202196,0.0,0.0,0.86802757,898.1319,825.2015,730.5128,967.4359,809.89014,-0.1044921875,0.0382080078125,1.002685546875,4.942169189453125,-5.973968505859375,-0.740203857421875,1,1.0,1.0,1.0,1.0,100.00
2021-08-26 21:10:25.507,1.0050687,0.0,0.0,1.4503957,0.8746807,0.0,0.0,1.0807788,0.9157426,0.0,0.0,1.1905838,0.91392404,0.0,0.0,0.8616552,0.8202196,0.0,0.0,0.86802757,846.55676,804.2491,745.42126,946.08057,743.00366,-0.1044921875,0.0382080078125,1.002685546875,4.942169189453125,-5.973968505859375,-0.740203857421875,1,1.0,1.0,1.0,1.0,100.00
2021-08-26 21:10:25.508,1.0050687,0.0,0.0,1.4503957,0.8746807,0.0,0.0,1.0807788,0.9157426,0.0,0.0,1.1905838,0.91392404,0.0,0.0,0.8616552,0.8202196,0.0,0.0,0.86802757,754.2857,783.2967,770.40295,857.8388,617.6923,-0.1044921875,0.0382080078125,1.002685546875,4.942169189453125,-5.973968505859375,-0.740203857421875,1,1.0,1.0,1.0,1.0,100.00
2021-08-26 21:10:25.508,1.0050687,0.0,0.0,1.4503957,0.8746807,0.0,0.0,1.0807788,0.9157426,0.0,0.0,1.1905838,0.91392404,0.0,0.0,0.8616552,0.8202196,0.0,0.0,0.86802757,832.0513,777.25275,722.8571,915.4579,616.8865,-0.1044921875,0.0382080078125,1.002685546875,4.942169189453125,-5.973968505859375,-0.740203857421875,1,1.0,1.0,1.0,1.0,100.00
2021-08-26 21:10:25.508,1.0050687,0.0,0.0,1.4503957,0.8746807,0.0,0.0,1.0807788,0.9157426,0.0,0.0,1.1905838,0.91392404,0.0,0.0,0.8616552,0.8202196,0.0,0.0,0.86802757,829.2308,770.0,757.50916,948.49817,848.1685,-0.1044921875,0.0382080078125,1.002685546875,4.942169189453125,-5.973968505859375,-0.740203857421875,1,1.0,1.0,1.0,1.0,100.00
2021-08-26 21:10:25.508,1.0050687,0.0,0.0,1.4503957,0.8746807,0.0,0.0,1.0807788,0.9157426,0.0,0.0,1.1905838,0.91392404,0.0,0.0,0.8616552,0.8202196,0.0,0.0,0.86802757,794.17584,826.8132,794.9817,871.13556,977.9121,-0.1044921875,0.0382080078125,1.002685546875,4.942169189453125,-5.973968505859375,-0.740203857421875,1,1.0,1.0,1.0,1.0,100.00
2021-08-26 21:10:25.509,1.0050687,0.0,0.0,1.4503957,0.8746807,0.0,0.0,1.0807788,0.9157426,0.0,0.0,1.1905838,0.91392404,0.0,0.0,0.8616552,0.8202196,0.0,0.0,0.86802757,746.2271,790.14655,751.8681,810.696,783.2967,-0.1044921875,0.0382080078125,1.002685546875,4.942169189453125,-5.973968505859375,-0.740203857421875,1,1.0,1.0,1.0,1.0,100.00
2021-08-26 21:10:25.509,1.0050687,0.0,0.0,1.4503957,0.8746807,0.0,0.0,1.0807788,0.9157426,0.0,0.0,1.1905838,0.91392404,0.0,0.0,0.8616552,0.8202196,0.0,0.0,0.86802757,849.7802,789.34064,761.13556,869.5238,523.8095,-0.1044921875,0.0382080078125,1.002685546875,4.942169189453125,-5.973968505859375,-0.740203857421875,1,1.0,1.0,1.0,1.0,100.00
2021-08-26 21:10:25.509,1.0050687,0.0,0.0,1.4503957,0.8746807,0.0,0.0,1.0807788,0.9157426,0.0,0.0,1.1905838,0.91392404,0.0,0.0,0.8616552,0.8202196,0.0,0.0,0.86802757,835.6777,803.8461,767.5824,929.5604,624.1392,-0.1044921875,0.0382080078125,1.002685546875,4.942169189453125,-5.973968505859375,-0.740203857421875,1,1.0,1.0,1.0,1.0,100.00
2021-08-26 21:10:25.509,1.0050687,0.0,0.0,1.4503957,0.8746807,0.0,0.0,1.0807788,0.9157426,0.0,0.0,1.1905838,0.91392404,0.0,0.0,0.8616552,0.8202196,0.0,0.0,0.86802757,756.30035,753.47986,786.9231,920.293,1084.6886,-0.1044921875,0.0382080078125,1.002685546875,4.942169189453125,-5.973968505859375,-0.740203857421875,1,1.0,1.0,1.0,1.0,100.00
2021-08-26 21:10:25.510,1.0050687,0.0,0.0,1.4503957,0.8746807,0.0,0.0,1.0807788,0.9157426,0.0,0.0,1.1905838,0.91392404,0.0,0.0,0.8616552,0.8202196,0.0,0.0,0.86802757,831.6484,763.1502,737.3626,826.0073,1104.0293,-0.1044921875,0.0382080078125,1.002685546875,4.942169189453125,-5.973968505859375,-0.740203857421875,1,1.0,1.0,1.0,1.0,100.00
2021-08-26 21:10:25.510,1.0050687,0.0,0.0,1.4503957,0.8746807,0.0,0.0,1.0807788,0.9157426,0.0,0.0,1.1905838,0.91392404,0.0,0.0,0.8616552,0.8202196,0.0,0.0,0.86802757,809.89014,780.4762,728.49817,885.64105,731.31866,-0.1044921875,0.0382080078125,1.002685546875,4.942169189453125,-5.973968505859375,-0.740203857421875,1,1.0,1.0,1.0,1.0,100.00
2021-08-26 21:10:25.542,1.0050687,0.0,0.0,1.4503957,0.8746807,0.0,0.0,1.0807788,0.9157426,0.0,0.0,1.1905838,0.91392404,0.0,0.0,0.8616552,0.8202196,0.0,0.0,0.86802757,825.2015,789.7436,788.1319,963.8095,559.67035,-0.10357666015625,0.0389404296875,1.00518798828125,4.83001708984375,-4.08233642578125,-0.889739990234375,1,1.0,1.0,1.0,1.0,100.00
2021-08-26 21:10:25.542,1.0050687,0.0,0.0,1.4503957,0.8746807,0.0,0.0,1.0807788,0.9157426,0.0,0.0,1.1905838,0.91392404,0.0,0.0,0.8616552,0.8202196,0.0,0.0,0.86802757,854.21246,792.5641,730.9158,870.32965,648.315,-0.10357666015625,0.0389404296875,1.00518798828125,4.83001708984375,-4.08233642578125,-0.889739990234375,1,1.0,1.0,1.0,1.0,100.00
2021-08-26 21:10:25.545,1.0050687,0.0,0.0,1.4503957,0.8746807,0.0,0.0,1.0807788,0.9157426,0.0,0.0,1.1905838,0.91392404,0.0,0.0,0.8616552,0.8202196,0.0,0.0,0.86802757,772.4176,788.93774,724.0659,848.97437,806.26373,-0.10357666015625,0.0389404296875,1.00518798828125,4.83001708984375,-4.08233642578125,-0.889739990234375,1,1.0,1.0,1.0,1.0,100.00
2021-08-26 21:10:25.545,1.0050687,0.0,0.0,1.4503957,0.8746807,0.0,0.0,1.0807788,0.9157426,0.0,0.0,1.1905838,0.91392404,0.0,0.0,0.8616552,0.8202196,0.0,0.0,0.86802757,805.05493,776.4469,806.6667,894.10254,839.304,-0.10357666015625,0.0389404296875,1.00518798828125,4.83001708984375,-4.08233642578125,-0.889739990234375,1,1.0,1.0,1.0,1.0,100.00
2021-08-26 21:10:25.545,1.0050687,0.0,0.0,1.4503957,0.8746807,0.0,0.0,1.0807788,0.9157426,0.0,0.0,1.1905838,0.91392404,0.0,0.0,0.8616552,0.8202196,0.0,0.0,0.86802757,801.8315,779.67035,752.27106,781.685,707.9487,-0.10357666015625,0.0389404296875,1.00518798828125,4.83001708984375,-4.08233642578125,-0.889739990234375,1,1.0,1.0,1.0,1.0,100.00
2021-08-26 21:10:25.545,1.0050687,0.0,0.0,1.4503957,0.8746807,0.0,0.0,1.0807788,0.9157426,0.0,0.0,1.1905838,0.91392404,0.0,0.0,0.8616552,0.8202196,0.0,0.0,0.86802757,764.7619,793.36993,700.293,914.2491,657.1795,-0.10357666015625,0.0389404296875,1.00518798828125,4.83001708984375,-4.08233642578125,-0.889739990234375,1,1.0,1.0,1.0,1.0,100.00
2021-08-26 21:10:25.546,1.0050687,0.0,0.0,1.4503957,0.8746807,0.0,0.0,1.0807788,0.9157426,0.0,0.0,1.1905838,0.91392404,0.0,0.0,0.8616552,0.8202196,0.0,0.0,0.86802757,871.9414,756.7033,790.54944,994.43225,738.1685,-0.10357666015625,0.0389404296875,1.00518798828125,4.83001708984375,-4.08233642578125,-0.889739990234375,1,1.0,1.0,1.0,1.0,100.00
2021-08-26 21:10:25.546,1.0050687,0.0,0.0,1.4503957,0.8746807,0.0,0.0,1.0807788,0.9157426,0.0,0.0,1.1905838,0.91392404,0.0,0.0,0.8616552,0.8202196,0.0,0.0,0.86802757,849.7802,781.685,773.6264,861.4652,804.2491,-0.10357666015625,0.0389404296875,1.00518798828125,4.83001708984375,-4.08233642578125,-0.889739990234375,1,1.0,1.0,1.0,1.0,100.00
2021-08-26 21:10:25.546,1.0050687,0.0,0.0,1.4503957,0.8746807,0.0,0.0,1.0807788,0.9157426,0.0,0.0,1.1905838,0.91392404,0.0,0.0,0.8616552,0.8202196,0.0,0.0,0.86802757,834.0659,784.5055,731.31866,903.7729,964.21246,-0.10357666015625,0.0389404296875,1.00518798828125,4.83001708984375,-4.08233642578125,-0.889739990234375,1,1.0,1.0,1.0,1.0,100.00
2021-08-26 21:10:25.546,1.0050687,0.0,0.0,1.4503957,0.8746807,0.0,0.0,1.0807788,0.9157426,0.0,0.0,1.1905838,0.91392404,0.0,0.0,0.8616552,0.8202196,0.0,0.0,0.86802757,862.27106,761.9414,782.0879,866.30035,987.98535,-0.10357666015625,0.0389404296875,1.00518798828125,4.83001708984375,-4.08233642578125,-0.889739990234375,1,1.0,1.0,1.0,1.0,100.00
2021-08-26 21:10:25.547,1.0050687,0.0,0.0,1.4503957,0.8746807,0.0,0.0,1.0807788,0.9157426,0.0,0.0,1.1905838,0.91392404,0.0,0.0,0.8616552,0.8202196,0.0,0.0,0.86802757,791.75824,748.6447,784.90845,836.8865,591.50183,-0.10357666015625,0.0389404296875,1.00518798828125,4.83001708984375,-4.08233642578125,-0.889739990234375,1,1.0,1.0,1.0,1.0,100.00
2021-08-26 21:10:25.547,1.0050687,0.0,0.0,1.4503957,0.8746807,0.0,0.0,1.0807788,0.9157426,0.0,0.0,1.1905838,0.91392404,0.0,0.0,0.8616552,0.8202196,0.0,0.0,0.86802757,743.8095,772.8205,756.30035,895.7143,583.44324,-0.10357666015625,0.0389404296875,1.00518798828125,4.83001708984375,-4.08233642578125,-0.889739990234375,1,1.0,1.0,1.0,1.0,100.00
2021-08-26 21:10:25.610,1.0050687,0.0,0.0,1.4503957,0.8746807,0.0,0.0,1.0807788,0.9157426,0.0,0.0,1.1905838,0.91392404,0.0,0.0,0.8616552,0.8202196,0.0,0.0,0.86802757,765.56775,767.1795,739.3773,891.685,1008.5348,-0.10577392578125,0.03656005859375,1.00421142578125,3.7982177734375,-4.11224365234375,-1.457977294921875,1,1.0,1.0,1.0,1.0,100.00
2021-08-26 21:10:25.610,1.0050687,0.0,0.0,1.4503957,0.8746807,0.0,0.0,1.0807788,0.9157426,0.0,0.0,1.1905838,0.91392404,0.0,0.0,0.8616552,0.8202196,0.0,0.0,0.86802757,842.1245,731.31866,755.89746,913.0403,1000.87915,-0.10577392578125,0.03656005859375,1.00421142578125,3.7982177734375,-4.11224365234375,-1.457977294921875,1,1.0,1.0,1.0,1.0,100.00
2021-08-26 21:10:25.611,1.0050687,0.0,0.0,1.4503957,0.8746807,0.0,0.0,1.0807788,0.9157426,0.0,0.0,1.1905838,0.91392404,0.0,0.0,0.8616552,0.8202196,0.0,0.0,0.86802757,862.674,755.4945,748.24176,949.707,737.3626,-0.10577392578125,0.03656005859375,1.00421142578125,3.7982177734375,-4.11224365234375,-1.457977294921875,1,1.0,1.0,1.0,1.0,100.00
2021-08-26 21:10:25.611,1.0050687,0.0,0.0,1.4503957,0.8746807,0.0,0.0,1.0807788,0.9157426,0.0,0.0,1.1905838,0.91392404,0.0,0.0,0.8616552,0.8202196,0.0,0.0,0.86802757,785.31134,726.08057,760.32965,883.6264,593.91943,-0.10577392578125,0.03656005859375,1.00421142578125,3.7982177734375,-4.11224365234375,-1.457977294921875,1,1.0,1.0,1.0,1.0,100.00
2021-08-26 21:10:25.611,1.0050687,0.0,0.0,1.4503957,0.8746807,0.0,0.0,1.0807788,0.9157426,0.0,0.0,1.1905838,0.91392404,0.0,0.0,0.8616552,0.8202196,0.0,0.0,0.86802757,869.5238,719.2308,735.34796,844.1392,627.3626,-0.10577392578125,0.03656005859375,1.00421142578125,3.7982177734375,-4.11224365234375,-1.457977294921875,1,1.0,1.0,1.0,1.0,100.00
2021-08-26 21:10:25.611,1.0050687,0.0,0.0,1.4503957,0.8746807,0.0,0.0,1.0807788,0.9157426,0.0,0.0,1.1905838,0.91392404,0.0,0.0,0.8616552,0.8202196,0.0,0.0,0.86802757,882.4176,740.18317,731.7216,903.7729,892.49084,-0.10577392578125,0.03656005859375,1.00421142578125,3.7982177734375,-4.11224365234375,-1.457977294921875,1,1.0,1.0,1.0,1.0,100.00
2021-08-26 21:10:25.612,1.0050687,0.0,0.0,1.4503957,0.8746807,0.0,0.0,1.0807788,0.9157426,0.0,0.0,1.1905838,0.91392404,0.0,0.0,0.8616552,0.8202196,0.0,0.0,0.86802757,746.63007,747.4359,768.7912,922.3077,980.32965,-0.10577392578125,0.03656005859375,1.00421142578125,3.7982177734375,-4.11224365234375,-1.457977294921875,1,1.0,1.0,1.0,1.0,100.00
2021-08-26 21:10:25.612,1.0050687,0.0,0.0,1.4503957,0.8746807,0.0,0.0,1.0807788,0.9157426,0.0,0.0,1.1905838,0.91392404,0.0,0.0,0.8616552,0.8202196,0.0,0.0,0.86802757,771.2088,727.6923,755.09155,925.12823,768.3883,-0.10577392578125,0.03656005859375,1.00421142578125,3.7982177734375,-4.11224365234375,-1.457977294921875,1,1.0,1.0,1.0,1.0,100.00
2021-08-26 21:10:25.612,1.0050687,0.0,0.0,1.4503957,0.8746807,0.0,0.0,1.0807788,0.9157426,0.0,0.0,1.1905838,0.91392404,0.0,0.0,0.8616552,0.8202196,0.0,0.0,0.86802757,877.5824,725.2747,762.74725,794.9817,758.315,-0.10577392578125,0.03656005859375,1.00421142578125,3.7982177734375,-4.11224365234375,-1.457977294921875,1,1.0,1.0,1.0,1.0,100.00
2021-08-26 21:10:25.613,1.0050687,0.0,0.0,1.4503957,0.8746807,0.0,0.0,1.0807788,0.9157426,0.0,0.0,1.1905838,0.91392404,0.0,0.0,0.8616552,0.8202196,0.0,0.0,0.86802757,860.2564,738.5714,732.52747,774.83514,646.30035,-0.10577392578125,0.03656005859375,1.00421142578125,3.7982177734375,-4.11224365234375,-1.457977294921875,1,1.0,1.0,1.0,1.0,100.00
2021-08-26 21:10:25.613,1.0050687,0.0,0.0,1.4503957,0.8746807,0.0,0.0,1.0807788,0.9157426,0.0,0.0,1.1905838,0.91392404,0.0,0.0,0.8616552,0.8202196,0.0,0.0,0.86802757,832.8571,711.5751,714.7985,931.978,627.76556,-0.10577392578125,0.03656005859375,1.00421142578125,3.7982177734375,-4.11224365234375,-1.457977294921875,1,1.0,1.0,1.0,1.0,100.00
2021-08-26 21:10:25.613,1.0050687,0.0,0.0,1.4503957,0.8746807,0.0,0.0,1.0807788,0.9157426,0.0,0.0,1.1905838,0.91392404,0.0,0.0,0.8616552,0.8202196,0.0,0.0,0.86802757,818.3516,680.9524,771.2088,981.9414,875.9707,-0.10577392578125,0.03656005859375,1.00421142578125,3.7982177734375,-4.11224365234375,-1.457977294921875,1,1.0,1.0,1.0,1.0,100.00
2021-08-26 21:10:25.642,1.0050687,0.0,0.0,1.4503957,0.8746807,0.0,0.0,1.0807788,0.9157426,0.0,0.0,1.1905838,0.91392404,0.0,0.0,0.8616552,0.8202196,0.0,0.0,0.86802757,738.5714,690.6227,761.9414,867.1062,858.6447,-0.10577392578125,0.03656005859375,1.00421142578125,3.7982177734375,-4.11224365234375,-1.457977294921875,1,1.0,1.0,1.0,1.0,100.00
2021-08-26 21:10:25.642,1.0050687,0.0,0.0,1.4503957,0.8746807,0.0,0.0,1.0807788,0.9157426,0.0,0.0,1.1905838,0.91392404,0.0,0.0,0.8616552,0.8202196,0.0,0.0,0.86802757,786.52014,679.34064,733.73627,834.87177,628.97437,-0.10577392578125,0.03656005859375,1.00421142578125,3.7982177734375,-4.11224365234375,-1.457977294921875,1,1.0,1.0,1.0,1.0,100.00
2021-08-26 21:10:25.643,1.0050687,0.0,0.0,1.4503957,0.8746807,0.0,0.0,1.0807788,0.9157426,0.0,0.0,1.1905838,0.91392404,0.0,0.0,0.8616552,0.8202196,0.0,0.0,0.86802757,867.1062,660.0,762.74725,891.685,566.9231,-0.10577392578125,0.03656005859375,1.00421142578125,3.7982177734375,-4.11224365234375,-1.457977294921875,1,1.0,1.0,1.0,1.0,100.00
2021-08-26 21:10:25.643,1.0050687,0.0,0.0,1.4503957,0.8746807,0.0,0.0,1.0807788,0.9157426,0.0,0.0,1.1905838,0.91392404,0.0,0.0,0.8616552,0.8202196,0.0,0.0,0.86802757,835.2747,660.40295,747.03296,906.99634,819.5604,-0.10577392578125,0.03656005859375,1.00421142578125,3.7982177734375,-4.11224365234375,-1.457977294921875,1,1.0,1.0,1.0,1.0,100.00
2021-08-26 21:10:25.645,1.0050687,0.0,0.0,1.4503957,0.8746807,0.0,0.0,1.0807788,0.9157426,0.0,0.0,1.1905838,0.91392404,0.0,0.0,0.8616552,0.8202196,0.0,0.0,0.86802757,794.17584,658.7912,732.9304,890.4762,1030.6959,-0.10577392578125,0.03656005859375,1.00421142578125,3.7982177734375,-4.11224365234375,-1.457977294921875,1,1.0,1.0,1.0,1.0,100.00
2021-08-26 21:10:25.646,1.0050687,0.0,0.0,1.4503957,0.8746807,0.0,0.0,1.0807788,0.9157426,0.0,0.0,1.1905838,0.91392404,0.0,0.0,0.8616552,0.8202196,0.0,0.0,0.86802757,817.1429,659.59705,756.7033,899.7436,960.18317,-0.10577392578125,0.03656005859375,1.00421142578125,3.7982177734375,-4.11224365234375,-1.457977294921875,1,1.0,1.0,1.0,1.0,100.00
2021-08-26 21:10:25.646,1.0050687,0.0,0.0,1.4503957,0.8746807,0.0,0.0,1.0807788,0.9157426,0.0,0.0,1.1905838,0.91392404,0.0,0.0,0.8616552,0.8202196,0.0,0.0,0.86802757,833.2601,638.24176,752.27106,923.5165,726.8865,-0.10577392578125,0.03656005859375,1.00421142578125,3.7982177734375,-4.11224365234375,-1.457977294921875,1,1.0,1.0,1.0,1.0,100.00
2021-08-26 21:10:25.646,1.0050687,0.0,0.0,1.4503957,0.8746807,0.0,0.0,1.0807788,0.9157426,0.0,0.0,1.1905838,0.91392404,0.0,0.0,0.8616552,0.8202196,0.0,0.0,0.86802757,825.2015,635.42126,761.9414,849.7802,699.4872,-0.10577392578125,0.03656005859375,1.00421142578125,3.7982177734375,-4.11224365234375,-1.457977294921875,1,1.0,1.0,1.0,1.0,100.00
2021-08-26 21:10:25.646,1.0050687,0.0,0.0,1.4503957,0.8746807,0.0,0.0,1.0807788,0.9157426,0.0,0.0,1.1905838,0.91392404,0.0,0.0,0.8616552,0.8202196,0.0,0.0,0.86802757,790.9524,638.24176,803.8461,869.12085,966.63007,-0.10577392578125,0.03656005859375,1.00421142578125,3.7982177734375,-4.11224365234375,-1.457977294921875,1,1.0,1.0,1.0,1.0,100.00
2021-08-26 21:10:25.647,1.0050687,0.0,0.0,1.4503957,0.8746807,0.0,0.0,1.0807788,0.9157426,0.0,0.0,1.1905838,0.91392404,0.0,0.0,0.8616552,0.8202196,0.0,0.0,0.86802757,790.54944,649.92676,733.3333,791.75824,958.97437,-0.10577392578125,0.03656005859375,1.00421142578125,3.7982177734375,-4.11224365234375,-1.457977294921875,1,1.0,1.0,1.0,1.0,100.00
2021-08-26 21:10:25.647,1.0050687,0.0,0.0,1.4503957,0.8746807,0.0,0.0,1.0807788,0.9157426,0.0,0.0,1.1905838,0.91392404,0.0,0.0,0.8616552,0.8202196,0.0,0.0,0.86802757,788.5348,621.7216,753.8828,898.1319,837.28937,-0.10577392578125,0.03656005859375,1.00421142578125,3.7982177734375,-4.11224365234375,-1.457977294921875,1,1.0,1.0,1.0,1.0,100.00
2021-08-26 21:10:25.647,1.0050687,0.0,0.0,1.4503957,0.8746807,0.0,0.0,1.0807788,0.9157426,0.0,0.0,1.1905838,0.91392404,0.0,0.0,0.8616552,0.8202196,0.0,0.0,0.86802757,782.49084,623.73627,777.25275,892.0879,731.31866,-0.10577392578125,0.03656005859375,1.00421142578125,3.7982177734375,-4.11224365234375,-1.457977294921875,1,1.0,1.0,1.0,1.0,100.00
2021-08-26 21:10:25.677,1.0050687,0.0,0.0,1.4503957,0.8746807,0.0,0.0,1.0807788,0.9157426,0.0,0.0,1.1905838,0.91392404,0.0,0.0,0.8616552,0.8202196,0.0,0.0,0.86802757,862.674,647.1062,724.0659,870.32965,553.22345,-0.1063232421875,0.03533935546875,0.99700927734375,3.566436767578125,-4.4561767578125,-1.786956787109375,1,1.0,1.0,1.0,1.0,100.00
2021-08-26 21:10:25.678,1.0050687,0.0,0.0,1.4503957,0.8746807,0.0,0.0,1.0807788,0.9157426,0.0,0.0,1.1905838,0.91392404,0.0,0.0,0.8616552,0.8202196,0.0,0.0,0.86802757,780.87915,650.32965,749.85345,938.4249,562.8938,-0.1063232421875,0.03533935546875,0.99700927734375,3.566436767578125,-4.4561767578125,-1.786956787109375,1,1.0,1.0,1.0,1.0,100.00
2021-08-26 21:10:25.678,1.0050687,0.0,0.0,1.4503957,0.8746807,0.0,0.0,1.0807788,0.9157426,0.0,0.0,1.1905838,0.91392404,0.0,0.0,0.8616552,0.8202196,0.0,0.0,0.86802757,680.14655,645.89746,760.7326,828.022,786.9231,-0.1063232421875,0.03533935546875,0.99700927734375,3.566436767578125,-4.4561767578125,-1.786956787109375,1,1.0,1.0,1.0,1.0,100.00
2021-08-26 21:10:25.678,1.0050687,0.0,0.0,1.4503957,0.8746807,0.0,0.0,1.0807788,0.9157426,0.0,0.0,1.1905838,0.91392404,0.0,0.0,0.8616552,0.8202196,0.0,0.0,0.86802757,709.5604,641.8681,781.685,873.1502,907.3993,-0.1063232421875,0.03533935546875,0.99700927734375,3.566436767578125,-4.4561767578125,-1.786956787109375,1,1.0,1.0,1.0,1.0,100.00
2021-08-26 21:10:25.679,1.0050687,0.0,0.0,1.4503957,0.8746807,0.0,0.0,1.0807788,0.9157426,0.0,0.0,1.1905838,0.91392404,0.0,0.0,0.8616552,0.8202196,0.0,0.0,0.86802757,809.4872,646.30035,772.01465,918.68134,716.8132,-0.1063232421875,0.03533935546875,0.99700927734375,3.566436767578125,-4.4561767578125,-1.786956787109375,1,1.0,1.0,1.0,1.0,100.00
2021-08-26 21:10:25.679,1.0050687,0.0,0.0,1.4503957,0.8746807,0.0,0.0,1.0807788,0.9157426,0.0,0.0,1.1905838,0.91392404,0.0,0.0,0.8616552,0.8202196,0.0,0.0,0.86802757,853.8095,633.00366,743.00366,861.8681,588.2784,-0.1063232421875,0.03533935546875,0.99700927734375,3.566436767578125,-4.4561767578125,-1.786956787109375,1,1.0,1.0,1.0,1.0,100.00
2021-08-26 21:10:25.679,1.0050687,0.0,0.0,1.4503957,0.8746807,0.0,0.0,1.0807788,0.9157426,0.0,0.0,1.1905838,0.91392404,0.0,0.0,0.8616552,0.8202196,0.0,0.0,0.86802757,853.00366,677.326,734.1392,874.35895,724.87177,-0.1063232421875,0.03533935546875,0.99700927734375,3.566436767578125,-4.4561767578125,-1.786956787109375,1,1.0,1.0,1.0,1.0,100.00
2021-08-26 21:10:25.679,1.0050687,0.0,0.0,1.4503957,0.8746807,0.0,0.0,1.0807788,0.9157426,0.0,0.0,1.1905838,0.91392404,0.0,0.0,0.8616552,0.8202196,0.0,0.0,0.86802757,828.4249,682.96704,751.06226,874.7619,1195.4945,-0.1063232421875,0.03533935546875,0.99700927734375,3.566436767578125,-4.4561767578125,-1.786956787109375,1,1.0,1.0,1.0,1.0,100.00
2021-08-26 21:10:25.680,1.0050687,0.0,0.0,1.4503957,0.8746807,0.0,0.0,1.0807788,0.9157426,0.0,0.0,1.1905838,0.91392404,0.0,0.0,0.8616552,0.8202196,0.0,0.0,0.86802757,765.16486,671.685,791.75824,763.5531,1259.1575,-0.1063232421875,0.03533935546875,0.99700927734375,3.566436767578125,-4.4561767578125,-1.786956787109375,1,1.0,1.0,1.0,1.0,100.00
2021-08-26 21:10:25.680,1.0050687,0.0,0.0,1.4503957,0.8746807,0.0,0.0,1.0807788,0.9157426,0.0,0.0,1.1905838,0.91392404,0.0,0.0,0.8616552,0.8202196,0.0,0.0,0.86802757,824.3956,681.3553,792.96704,870.32965,787.326,-0.1063232421875,0.03533935546875,0.99700927734375,3.566436767578125,-4.4561767578125,-1.786956787109375,1,1.0,1.0,1.0,1.0,100.00
2021-08-26 21:10:25.680,1.0050687,0.0,0.0,1.4503957,0.8746807,0.0,0.0,1.0807788,0.9157426,0.0,0.0,1.1905838,0.91392404,0.0,0.0,0.8616552,0.8202196,0.0,0.0,0.86802757,836.08057,711.5751,742.1978,951.31866,593.1135,-0.1063232421875,0.03533935546875,0.99700927734375,3.566436767578125,-4.4561767578125,-1.786956787109375,1,1.0,1.0,1.0,1.0,100.00
2021-08-26 21:10:25.680,1.0050687,0.0,0.0,1.4503957,0.8746807,0.0,0.0,1.0807788,0.9157426,0.0,0.0,1.1905838,0.91392404,0.0,0.0,0.8616552,0.8202196,0.0,0.0,0.86802757,781.28204,722.8571,740.18317,844.5421,650.32965,-0.1063232421875,0.03533935546875,0.99700927734375,3.566436767578125,-4.4561767578125,-1.786956787109375,1,1.0,1.0,1.0,1.0,100.00
2021-08-26 21:10:25.744,1.0050687,0.0,0.0,1.4503957,0.8746807,0.0,0.0,1.0807788,0.9157426,0.0,0.0,1.1905838,0.91392404,0.0,0.0,0.8616552,0.8202196,0.0,0.0,0.86802757,792.96704,694.65204,749.85345,903.7729,781.28204,-0.1021728515625,0.0294189453125,0.99798583984375,3.70849609375,-4.0972900390625,-2.041168212890625,1,1.0,1.0,1.0,1.0,100.00
2021-08-26 21:10:25.745,1.0050687,0.0,0.0,1.4503957,0.8746807,0.0,0.0,1.0807788,0.9157426,0.0,0.0,1.1905838,0.91392404,0.0,0.0,0.8616552,0.8202196,0.0,0.0,0.86802757,856.63007,710.3663,769.19415,882.01465,860.65936,-0.1021728515625,0.0294189453125,0.99798583984375,3.70849609375,-4.0972900390625,-2.041168212890625,1,1.0,1.0,1.0,1.0,100.00
2021-08-26 21:10:25.745,1.0050687,0.0,0.0,1.4503957,0.8746807,0.0,0.0,1.0807788,0.9157426,0.0,0.0,1.1905838,0.91392404,0.0,0.0,0.8616552,0.8202196,0.0,0.0,0.86802757,782.0879,713.9927,769.59705,850.989,750.65936,-0.1021728515625,0.0294189453125,0.99798583984375,3.70849609375,-4.0972900390625,-2.041168212890625,1,1.0,1.0,1.0,1.0,100.00
2021-08-26 21:10:25.745,1.0050687,0.0,0.0,1.4503957,0.8746807,0.0,0.0,1.0807788,0.9157426,0.0,0.0,1.1905838,0.91392404,0.0,0.0,0.8616552,0.8202196,0.0,0.0,0.86802757,787.72894,745.0183,758.315,844.5421,590.293,-0.1021728515625,0.0294189453125,0.99798583984375,3.70849609375,-4.0972900390625,-2.041168212890625,1,1.0,1.0,1.0,1.0,100.00
2021-08-26 21:10:25.746,1.0050687,0.0,0.0,1.4503957,0.8746807,0.0,0.0,1.0807788,0.9157426,0.0,0.0,1.1905838,0.91392404,0.0,0.0,0.8616552,0.8202196,0.0,0.0,0.86802757,809.0842,769.19415,737.76556,882.4176,598.3516,-0.1021728515625,0.0294189453125,0.99798583984375,3.70849609375,-4.0972900390625,-2.041168212890625,1,1.0,1.0,1.0,1.0,100.00
2021-08-26 21:10:25.746,1.0050687,0.0,0.0,1.4503957,0.8746807,0.0,0.0,1.0807788,0.9157426,0.0,0.0,1.1905838,0.91392404,0.0,0.0,0.8616552,0.8202196,0.0,0.0,0.86802757,771.2088,745.42126,747.03296,904.57874,816.7399,-0.1021728515625,0.0294189453125,0.99798583984375,3.70849609375,-4.0972900390625,-2.041168212890625,1,1.0,1.0,1.0,1.0,100.00
2021-08-26 21:10:25.748,1.0050687,0.0,0.0,1.4503957,0.8746807,0.0,0.0,1.0807788,0.9157426,0.0,0.0,1.1905838,0.91392404,0.0,0.0,0.8616552,0.8202196,0.0,0.0,0.86802757,817.9487,712.381,767.1795,887.25275,1060.9158,-0.1021728515625,0.0294189453125,0.99798583984375,3.70849609375,-4.0972900390625,-2.041168212890625,1,1.0,1.0,1.0,1.0,100.00
2021-08-26 21:10:25.748,1.0050687,0.0,0.0,1.4503957,0.8746807,0.0,0.0,1.0807788,0.9157426,0.0,0.0,1.1905838,0.91392404,0.0,0.0,0.8616552,0.8202196,0.0,0.0,0.86802757,793.36993,746.63007,737.76556,815.12823,1045.2014,-0.1021728515625,0.0294189453125,0.99798583984375,3.70849609375,-4.0972900390625,-2.041168212890625,1,1.0,1.0,1.0,1.0,100.00
2021-08-26 21:10:25.748,1.0050687,0.0,0.0,1.4503957,0.8746807,0.0,0.0,1.0807788,0.9157426,0.0,0.0,1.1905838,0.91392404,0.0,0.0,0.8616552,0.8202196,0.0,0.0,0.86802757,789.34064,771.6117,743.4066,807.47253,749.0476,-0.1021728515625,0.0294189453125,0.99798583984375,3.70849609375,-4.0972900390625,-2.041168212890625,1,1.0,1.0,1.0,1.0,100.00
2021-08-26 21:10:25.749,1.0050687,0.0,0.0,1.4503957,0.8746807,0.0,0.0,1.0807788,0.9157426,0.0,0.0,1.1905838,0.91392404,0.0,0.0,0.8616552,0.8202196,0.0,0.0,0.86802757,861.8681,747.4359,765.16486,913.8461,629.7802,-0.1021728515625,0.0294189453125,0.99798583984375,3.70849609375,-4.0972900390625,-2.041168212890625,1,1.0,1.0,1.0,1.0,100.00
2021-08-26 21:10:25.749,1.0050687,0.0,0.0,1.4503957,0.8746807,0.0,0.0,1.0807788,0.9157426,0.0,0.0,1.1905838,0.91392404,0.0,0.0,0.8616552,0.8202196,0.0,0.0,0.86802757,850.58606,743.4066,776.04395,933.1868,836.08057,-0.1021728515625,0.0294189453125,0.99798583984375,3.70849609375,-4.0972900390625,-2.041168212890625,1,1.0,1.0,1.0,1.0,100.00
2021-08-26 21:10:25.749,1.0050687,0.0,0.0,1.4503957,0.8746807,0.0,0.0,1.0807788,0.9157426,0.0,0.0,1.1905838,0.91392404,0.0,0.0,0.8616552,0.8202196,0.0,0.0,0.86802757,817.9487,776.04395,750.2564,861.8681,986.77655,-0.1021728515625,0.0294189453125,0.99798583984375,3.70849609375,-4.0972900390625,-2.041168212890625,1,1.0,1.0,1.0,1.0,100.00
2021-08-26 21:10:25.776,1.0050687,0.0,0.0,1.4503957,0.8746807,0.0,0.0,1.0807788,0.9157426,0.0,0.0,1.1905838,0.91392404,0.0,0.0,0.8616552,0.8202196,0.0,0.0,0.86802757,819.9634,754.2857,738.1685,822.381,819.5604,-0.10443115234375,0.0321044921875,1.00360107421875,4.6356201171875,-3.94775390625,-0.964508056640625,1,1.0,1.0,1.0,1.0,100.00
2021-08-26 21:10:25.776,1.0050687,0.0,0.0,1.4503957,0.8746807,0.0,0.0,1.0807788,0.9157426,0.0,0.0,1.1905838,0.91392404,0.0,0.0,0.8616552,0.8202196,0.0,0.0,0.86802757,774.0293,735.7509,788.93774,847.76556,643.8828,-0.10443115234375,0.0321044921875,1.00360107421875,4.6356201171875,-3.94775390625,-0.964508056640625,1,1.0,1.0,1.0,1.0,100.00
2021-08-26 21:10:25.776,1.0050687,0.0,0.0,1.4503957,0.8746807,0.0,0.0,1.0807788,0.9157426,0.0,0.0,1.1905838,0.91392404,0.0,0.0,0.8616552,0.8202196,0.0,0.0,0.86802757,764.35895,774.43225,784.5055,817.9487,658.3883,-0.10443115234375,0.0321044921875,1.00360107421875,4.6356201171875,-3.94775390625,-0.964508056640625,1,1.0,1.0,1.0,1.0,100.00
2021-08-26 21:10:25.777,1.0050687,0.0,0.0,1.4503957,0.8746807,0.0,0.0,1.0807788,0.9157426,0.0,0.0,1.1905838,0.91392404,0.0,0.0,0.8616552,0.8202196,0.0,0.0,0.86802757,760.7326,754.68866,742.1978,877.98535,801.02563,-0.10443115234375,0.0321044921875,1.00360107421875,4.6356201171875,-3.94775390625,-0.964508056640625,1,1.0,1.0,1.0,1.0,100.00
2021-08-26 21:10:25.777,1.0050687,0.0,0.0,1.4503957,0.8746807,0.0,0.0,1.0807788,0.9157426,0.0,0.0,1.1905838,0.91392404,0.0,0.0,0.8616552,0.8202196,0.0,0.0,0.86802757,749.85345,749.0476,749.0476,908.20514,907.3993,-0.10443115234375,0.0321044921875,1.00360107421875,4.6356201171875,-3.94775390625,-0.964508056640625,1,1.0,1.0,1.0,1.0,100.00
2021-08-26 21:10:25.777,1.0050687,0.0,0.0,1.4503957,0.8746807,0.0,0.0,1.0807788,0.9157426,0.0,0.0,1.1905838,0.91392404,0.0,0.0,0.8616552,0.8202196,0.0,0.0,0.86802757,763.95605,796.99634,765.56775,807.8755,907.8022,-0.10443115234375,0.0321044921875,1.00360107421875,4.6356201171875,-3.94775390625,-0.964508056640625,1,1.0,1.0,1.0,1.0,100.00
2021-08-26 21:10:25.777,1.0050687,0.0,0.0,1.4503957,0.8746807,0.0,0.0,1.0807788,0.9157426,0.0,0.0,1.1905838,0.91392404,0.0,0.0,0.8616552,0.8202196,0.0,0.0,0.86802757,772.01465,756.7033,751.06226,821.1722,946.08057,-0.10443115234375,0.0321044921875,1.00360107421875,4.6356201171875,-3.94775390625,-0.964508056640625,1,1.0,1.0,1.0,1.0,100.00
2021-08-26 21:10:25.778,1.0050687,0.0,0.0,1.4503957,0.8746807,0.0,0.0,1.0807788,0.9157426,0.0,0.0,1.1905838,0.91392404,0.0,0.0,0.8616552,0.8202196,0.0,0.0,0.86802757,894.10254,722.8571,746.2271,904.57874,730.10986,-0.10443115234375,0.0321044921875,1.00360107421875,4.6356201171875,-3.94775390625,-0.964508056640625,1,1.0,1.0,1.0,1.0,100.00
2021-08-26 21:10:25.778,1.0050687,0.0,0.0,1.4503957,0.8746807,0.0,0.0,1.0807788,0.9157426,0.0,0.0,1.1905838,0.91392404,0.0,0.0,0.8616552,0.8202196,0.0,0.0,0.86802757,873.1502,773.22345,796.1905,867.50916,603.5897,-0.10443115234375,0.0321044921875,1.00360107421875,4.6356201171875,-3.94775390625,-0.964508056640625,1,1.0,1.0,1.0,1.0,100.00
2021-08-26 21:10:25.778,1.0050687,0.0,0.0,1.4503957,0.8746807,0.0,0.0,1.0807788,0.9157426,0.0,0.0,1.1905838,0.91392404,0.0,0.0,0.8616552,0.8202196,0.0,0.0,0.86802757,758.71796,802.6374,746.63007,838.9011,840.5128,-0.10443115234375,0.0321044921875,1.00360107421875,4.6356201171875,-3.94775390625,-0.964508056640625,1,1.0,1.0,1.0,1.0,100.00
2021-08-26 21:10:25.778,1.0050687,0.0,0.0,1.4503957,0.8746807,0.0,0.0,1.0807788,0.9157426,0.0,0.0,1.1905838,0.91392404,0.0,0.0,0.8616552,0.8202196,0.0,0.0,0.86802757,824.3956,783.2967,759.12085,863.0769,873.5531,-0.10443115234375,0.0321044921875,1.00360107421875,4.6356201171875,-3.94775390625,-0.964508056640625,1,1.0,1.0,1.0,1.0,100.00
2021-08-26 21:10:25.779,1.0050687,0.0,0.0,1.4503957,0.8746807,0.0,0.0,1.0807788,0.9157426,0.0,0.0,1.1905838,0.91392404,0.0,0.0,0.8616552,0.8202196,0.0,0.0,0.86802757,859.45056,809.89014,773.6264,890.87915,724.4689,-0.10443115234375,0.0321044921875,1.00360107421875,4.6356201171875,-3.94775390625,-0.964508056640625,1,1.0,1.0,1.0,1.0,100.00
2021-08-26 21:10:25.842,1.0050687,0.0,0.0,1.4503957,0.8746807,0.0,0.0,1.0807788,0.9157426,0.0,0.0,1.1905838,0.91392404,0.0,0.0,0.8616552,0.8202196,0.0,0.0,0.86802757,734.94507,809.0842,755.09155,848.1685,584.2491,-0.10400390625,0.03485107421875,0.99957275390625,3.66363525390625,-3.970184326171875,-1.024322509765625,1,1.0,1.0,1.0,1.0,100.00
2021-08-26 21:10:25.843,1.0050687,0.0,0.0,1.4503957,0.8746807,0.0,0.0,1.0807788,0.9157426,0.0,0.0,1.1905838,0.91392404,0.0,0.0,0.8616552,0.8202196,0.0,0.0,0.86802757,796.99634,759.92676,830.84247,773.22345,632.1978,-0.10400390625,0.03485107421875,0.99957275390625,3.66363525390625,-3.970184326171875,-1.024322509765625,1,1.0,1.0,1.0,1.0,100.00
2021-08-26 21:10:25.843,1.0050687,0.0,0.0,1.4503957,0.8746807,0.0,0.0,1.0807788,0.9157426,0.0,0.0,1.1905838,0.91392404,0.0,0.0,0.8616552,0.8202196,0.0,0.0,0.86802757,848.97437,772.4176,793.36993,871.9414,912.23444,-0.10400390625,0.03485107421875,0.99957275390625,3.66363525390625,-3.970184326171875,-1.024322509765625,1,1.0,1.0,1.0,1.0,100.00
2021-08-26 21:10:25.844,1.0050687,0.0,0.0,1.4503957,0.8746807,0.0,0.0,1.0807788,0.9157426,0.0,0.0,1.1905838,0.91392404,0.0,0.0,0.8616552,0.8202196,0.0,0.0,0.86802757,782.0879,782.8938,763.5531,911.8315,851.39197,-0.10400390625,0.03485107421875,0.99957275390625,3.66363525390625,-3.970184326171875,-1.024322509765625,1,1.0,1.0,1.0,1.0,100.00
2021-08-26 21:10:25.844,1.0050687,0.0,0.0,1.4503957,0.8746807,0.0,0.0,1.0807788,0.9157426,0.0,0.0,1.1905838,0.91392404,0.0,0.0,0.8616552,0.8202196,0.0,0.0,0.86802757,846.55676,785.7143,778.86444,802.23444,607.619,-0.10400390625,0.03485107421875,0.99957275390625,3.66363525390625,-3.970184326171875,-1.024322509765625,1,1.0,1.0,1.0,1.0,100.00
2021-08-26 21:10:25.844,1.0050687,0.0,0.0,1.4503957,0.8746807,0.0,0.0,1.0807788,0.9157426,0.0,0.0,1.1905838,0.91392404,0.0,0.0,0.8616552,0.8202196,0.0,0.0,0.86802757,863.8828,766.77655,793.36993,787.72894,666.04395,-0.10400390625,0.03485107421875,0.99957275390625,3.66363525390625,-3.970184326171875,-1.024322509765625,1,1.0,1.0,1.0,1.0,100.00
2021-08-26 21:10:25.845,1.0050687,0.0,0.0,1.4503957,0.8746807,0.0,0.0,1.0807788,0.9157426,0.0,0.0,1.1905838,0.91392404,0.0,0.0,0.8616552,0.8202196,0.0,0.0,0.86802757,838.9011,792.5641,782.8938,899.34064,866.7033,-0.10400390625,0.03485107421875,0.99957275390625,3.66363525390625,-3.970184326171875,-1.024322509765625,1,1.0,1.0,1.0,1.0,100.00
2021-08-26 21:10:25.845,1.0050687,0.0,0.0,1.4503957,0.8746807,0.0,0.0,1.0807788,0.9157426,0.0,0.0,1.1905838,0.91392404,0.0,0.0,0.8616552,0.8202196,0.0,0.0,0.86802757,778.0586,828.4249,772.01465,863.8828,950.9158,-0.10400390625,0.03485107421875,0.99957275390625,3.66363525390625,-3.970184326171875,-1.024322509765625,1,1.0,1.0,1.0,1.0,100.00
2021-08-26 21:10:25.847,1.0050687,0.0,0.0,1.4503957,0.8746807,0.0,0.0,1.0807788,0.9157426,0.0,0.0,1.1905838,0.91392404,0.0,0.0,0.8616552,0.8202196,0.0,0.0,0.86802757,713.5897,770.0,785.7143,845.34796,880.40295,-0.10400390625,0.03485107421875,0.99957275390625,3.66363525390625,-3.970184326171875,-1.024322509765625,1,1.0,1.0,1.0,1.0,100.00
2021-08-26 21:10:25.847,1.0050687,0.0,0.0,1.4503957,0.8746807,0.0,0.0,1.0807788,0.9157426,0.0,0.0,1.1905838,0.91392404,0.0,0.0,0.8616552,0.8202196,0.0,0.0,0.86802757,847.76556,764.35895,781.685,865.09155,761.9414,-0.10400390625,0.03485107421875,0.99957275390625,3.66363525390625,-3.970184326171875,-1.024322509765625,1,1.0,1.0,1.0,1.0,100.00
2021-08-26 21:10:25.847,1.0050687,0.0,0.0,1.4503957,0.8746807,0.0,0.0,1.0807788,0.9157426,0.0,0.0,1.1905838,0.91392404,0.0,0.0,0.8616552,0.8202196,0.0,0.0,0.86802757,863.8828,787.326,770.40295,860.2564,733.3333,-0.10400390625,0.03485107421875,0.99957275390625,3.66363525390625,-3.970184326171875,-1.024322509765625,1,1.0,1.0,1.0,1.0,100.00
2021-08-26 21:10:25.848,1.0050687,0.0,0.0,1.4503957,0.8746807,0.0,0.0,1.0807788,0.9157426,0.0,0.0,1.1905838,0.91392404,0.0,0.0,0.8616552,0.8202196,0.0,0.0,0.86802757,805.05493,761.9414,800.6227,865.4945,716.8132,-0.10400390625,0.03485107421875,0.99957275390625,3.66363525390625,-3.970184326171875,-1.024322509765625,1,1.0,1.0,1.0,1.0,100.00
2021-08-26 21:10:25.876,1.0050687,0.0,0.0,1.4503957,0.8746807,0.0,0.0,1.0807788,0.9157426,0.0,0.0,1.1905838,0.91392404,0.0,0.0,0.8616552,0.8202196,0.0,0.0,0.86802757,786.1172,769.19415,837.6923,817.5458,882.4176,-0.10400390625,0.03485107421875,0.99957275390625,3.66363525390625,-3.970184326171875,-1.024322509765625,1,1.0,1.0,1.0,1.0,100.00
2021-08-26 21:10:25.877,1.0050687,0.0,0.0,1.4503957,0.8746807,0.0,0.0,1.0807788,0.9157426,0.0,0.0,1.1905838,0.91392404,0.0,0.0,0.8616552,0.8202196,0.0,0.0,0.86802757,787.326,797.3993,782.0879,847.76556,1020.6227,-0.10400390625,0.03485107421875,0.99957275390625,3.66363525390625,-3.970184326171875,-1.024322509765625,1,1.0,1.0,1.0,1.0,100.00
2021-08-26 21:10:25.877,1.0050687,0.0,0.0,1.4503957,0.8746807,0.0,0.0,1.0807788,0.9157426,0.0,0.0,1.1905838,0.91392404,0.0,0.0,0.8616552,0.8202196,0.0,0.0,0.86802757,858.24176,794.57874,766.77655,871.9414,872.3443,-0.10400390625,0.03485107421875,0.99957275390625,3.66363525390625,-3.970184326171875,-1.024322509765625,1,1.0,1.0,1.0,1.0,100.00
2021-08-26 21:10:25.878,1.0050687,0.0,0.0,1.4503957,0.8746807,0.0,0.0,1.0807788,0.9157426,0.0,0.0,1.1905838,0.91392404,0.0,0.0,0.8616552,0.8202196,0.0,0.0,0.86802757,794.57874,781.685,817.1429,822.7839,588.68134,-0.10400390625,0.03485107421875,0.99957275390625,3.66363525390625,-3.970184326171875,-1.024322509765625,1,1.0,1.0,1.0,1.0,100.00
2021-08-26 21:10:25.878,1.0050687,0.0,0.0,1.4503957,0.8746807,0.0,0.0,1.0807788,0.9157426,0.0,0.0,1.1905838,0.91392404,0.0,0.0,0.8616552,0.8202196,0.0,0.0,0.86802757,758.315,799.41394,819.9634,855.82416,567.72894,-0.10400390625,0.03485107421875,0.99957275390625,3.66363525390625,-3.970184326171875,-1.024322509765625,1,1.0,1.0,1.0,1.0,100.00
2021-08-26 21:10:25.878,1.0050687,0.0,0.0,1.4503957,0.8746807,0.0,0.0,1.0807788,0.9157426,0.0,0.0,1.1905838,0.91392404,0.0,0.0,0.8616552,0.8202196,0.0,0.0,0.86802757,803.0403,767.98535,822.381,866.30035,1048.4249,-0.10400390625,0.03485107421875,0.99957275390625,3.66363525390625,-3.970184326171875,-1.024322509765625,1,1.0,1.0,1.0,1.0,100.00
2021-08-26 21:10:25.878,1.0050687,0.0,0.0,1.4503957,0.8746807,0.0,0.0,1.0807788,0.9157426,0.0,0.0,1.1905838,0.91392404,0.0,0.0,0.8616552,0.8202196,0.0,0.0,0.86802757,759.92676,750.65936,824.7985,869.5238,1205.5677,-0.10400390625,0.03485107421875,0.99957275390625,3.66363525390625,-3.970184326171875,-1.024322509765625,1,1.0,1.0,1.0,1.0,100.00
2021-08-26 21:10:25.879,1.0050687,0.0,0.0,1.4503957,0.8746807,0.0,0.0,1.0807788,0.9157426,0.0,0.0,1.1905838,0.91392404,0.0,0.0,0.8616552,0.8202196,0.0,0.0,0.86802757,792.5641,794.17584,791.75824,865.89746,778.86444,-0.10400390625,0.03485107421875,0.99957275390625,3.66363525390625,-3.970184326171875,-1.024322509765625,1,1.0,1.0,1.0,1.0,100.00
2021-08-26 21:10:25.879,1.0050687,0.0,0.0,1.4503957,0.8746807,0.0,0.0,1.0807788,0.9157426,0.0,0.0,1.1905838,0.91392404,0.0,0.0,0.8616552,0.8202196,0.0,0.0,0.86802757,848.1685,782.49084,791.75824,875.9707,602.7839,-0.10400390625,0.03485107421875,0.99957275390625,3.66363525390625,-3.970184326171875,-1.024322509765625,1,1.0,1.0,1.0,1.0,100.00
2021-08-26 21:10:25.879,1.0050687,0.0,0.0,1.4503957,0.8746807,0.0,0.0,1.0807788,0.9157426,0.0,0.0,1.1905838,0.91392404,0.0,0.0,0.8616552,0.8202196,0.0,0.0,0.86802757,801.8315,752.674,832.4542,872.3443,769.59705,-0.10400390625,0.03485107421875,0.99957275390625,3.66363525390625,-3.970184326171875,-1.024322509765625,1,1.0,1.0,1.0,1.0,100.00
2021-08-26 21:10:25.879,1.0050687,0.0,0.0,1.4503957,0.8746807,0.0,0.0,1.0807788,0.9157426,0.0,0.0,1.1905838,0.91392404,0.0,0.0,0.8616552,0.8202196,0.0,0.0,0.86802757,818.3516,754.2857,848.97437,843.3333,876.77655,-0.10400390625,0.03485107421875,0.99957275390625,3.66363525390625,-3.970184326171875,-1.024322509765625,1,1.0,1.0,1.0,1.0,100.00
2021-08-26 21:10:25.880,1.0050687,0.0,0.0,1.4503957,0.8746807,0.0,0.0,1.0807788,0.9157426,0.0,0.0,1.1905838,0.91392404,0.0,0.0,0.8616552,0.8202196,0.0,0.0,0.86802757,828.4249,794.9817,800.2198,847.3626,877.98535,-0.10400390625,0.03485107421875,0.99957275390625,3.66363525390625,-3.970184326171875,-1.024322509765625,1,1.0,1.0,1.0,1.0,100.00
2021-08-26 21:10:25.937,1.0050687,0.0,0.0,1.4503957,0.8746807,0.0,0.0,1.0807788,0.9157426,0.0,0.0,1.1905838,0.91392404,0.0,0.0,0.8616552,0.8202196,0.0,0.0,0.86802757,774.83514,776.8498,815.12823,891.28204,763.1502,-0.10595703125,0.0321044921875,1.0054931640625,2.923431396484375,-3.170166015625,-0.620574951171875,1,1.0,1.0,1.0,1.0,100.00
2021-08-26 21:10:25.938,1.0050687,0.0,0.0,1.4503957,0.8746807,0.0,0.0,1.0807788,0.9157426,0.0,0.0,1.1905838,0.91392404,0.0,0.0,0.8616552,0.8202196,0.0,0.0,0.86802757,732.52747,755.09155,855.42126,882.4176,623.73627,-0.10595703125,0.0321044921875,1.0054931640625,2.923431396484375,-3.170166015625,-0.620574951171875,1,1.0,1.0,1.0,1.0,100.00
2021-08-26 21:10:25.938,1.0050687,0.0,0.0,1.4503957,0.8746807,0.0,0.0,1.0807788,0.9157426,0.0,0.0,1.1905838,0.91392404,0.0,0.0,0.8616552,0.8202196,0.0,0.0,0.86802757,723.663,776.04395,821.1722,816.337,604.3956,-0.10595703125,0.0321044921875,1.0054931640625,2.923431396484375,-3.170166015625,-0.620574951171875,1,1.0,1.0,1.0,1.0,100.00
2021-08-26 21:10:25.939,1.0050687,0.0,0.0,1.4503957,0.8746807,0.0,0.0,1.0807788,0.9157426,0.0,0.0,1.1905838,0.91392404,0.0,0.0,0.8616552,0.8202196,0.0,0.0,0.86802757,809.89014,763.95605,828.8278,857.4359,778.0586,-0.10595703125,0.0321044921875,1.0054931640625,2.923431396484375,-3.170166015625,-0.620574951171875,1,1.0,1.0,1.0,1.0,100.00
2021-08-26 21:10:25.939,1.0050687,0.0,0.0,1.4503957,0.8746807,0.0,0.0,1.0807788,0.9157426,0.0,0.0,1.1905838,0.91392404,0.0,0.0,0.8616552,0.8202196,0.0,0.0,0.86802757,889.67035,772.4176,859.45056,890.4762,953.73627,-0.10595703125,0.0321044921875,1.0054931640625,2.923431396484375,-3.170166015625,-0.620574951171875,1,1.0,1.0,1.0,1.0,100.00
2021-08-26 21:10:25.939,1.0050687,0.0,0.0,1.4503957,0.8746807,0.0,0.0,1.0807788,0.9157426,0.0,0.0,1.1905838,0.91392404,0.0,0.0,0.8616552,0.8202196,0.0,0.0,0.86802757,828.4249,798.60803,834.4689,856.2271,899.34064,-0.10595703125,0.0321044921875,1.0054931640625,2.923431396484375,-3.170166015625,-0.620574951171875,1,1.0,1.0,1.0,1.0,100.00
2021-08-26 21:10:25.940,1.0050687,0.0,0.0,1.4503957,0.8746807,0.0,0.0,1.0807788,0.9157426,0.0,0.0,1.1905838,0.91392404,0.0,0.0,0.8616552,0.8202196,0.0,0.0,0.86802757,780.07324,780.07324,805.05493,847.76556,710.3663,-0.10595703125,0.0321044921875,1.0054931640625,2.923431396484375,-3.170166015625,-0.620574951171875,1,1.0,1.0,1.0,1.0,100.00
2021-08-26 21:10:25.940,1.0050687,0.0,0.0,1.4503957,0.8746807,0.0,0.0,1.0807788,0.9157426,0.0,0.0,1.1905838,0.91392404,0.0,0.0,0.8616552,0.8202196,0.0,0.0,0.86802757,759.5238,779.2674,812.71063,833.2601,637.03296,-0.10595703125,0.0321044921875,1.0054931640625,2.923431396484375,-3.170166015625,-0.620574951171875,1,1.0,1.0,1.0,1.0,100.00
2021-08-26 21:10:25.940,1.0050687,0.0,0.0,1.4503957,0.8746807,0.0,0.0,1.0807788,0.9157426,0.0,0.0,1.1905838,0.91392404,0.0,0.0,0.8616552,0.8202196,0.0,0.0,0.86802757,731.7216,782.49084,846.9597,844.94507,813.5165,-0.10595703125,0.0321044921875,1.0054931640625,2.923431396484375,-3.170166015625,-0.620574951171875,1,1.0,1.0,1.0,1.0,100.00
2021-08-26 21:10:25.940,1.0050687,0.0,0.0,1.4503957,0.8746807,0.0,0.0,1.0807788,0.9157426,0.0,0.0,1.1905838,0.91392404,0.0,0.0,0.8616552,0.8202196,0.0,0.0,0.86802757,812.3077,774.0293,821.978,867.1062,1197.1062,-0.10595703125,0.0321044921875,1.0054931640625,2.923431396484375,-3.170166015625,-0.620574951171875,1,1.0,1.0,1.0,1.0,100.00
2021-08-26 21:10:25.943,1.0050687,0.0,0.0,1.4503957,0.8746807,0.0,0.0,1.0807788,0.9157426,0.0,0.0,1.1905838,0.91392404,0.0,0.0,0.8616552,0.8202196,0.0,0.0,0.86802757,828.022,772.8205,807.0696,855.82416,929.5604,-0.10595703125,0.0321044921875,1.0054931640625,2.923431396484375,-3.170166015625,-0.620574951171875,1,1.0,1.0,1.0,1.0,100.00
2021-08-26 21:10:25.943,1.0050687,0.0,0.0,1.4503957,0.8746807,0.0,0.0,1.0807788,0.9157426,0.0,0.0,1.1905838,0.91392404,0.0,0.0,0.8616552,0.8202196,0.0,0.0,0.86802757,791.3553,778.86444,815.5311,807.47253,546.3736,-0.10595703125,0.0321044921875,1.0054931640625,2.923431396484375,-3.170166015625,-0.620574951171875,1,1.0,1.0,1.0,1.0,100.00
2021-08-26 21:10:25.978,1.0050687,0.0,0.0,1.4503957,0.8746807,0.0,0.0,1.0807788,0.9157426,0.0,0.0,1.1905838,0.91392404,0.0,0.0,0.8616552,0.8202196,0.0,0.0,0.86802757,769.19415,774.0293,815.5311,771.6117,585.4579,-0.10955810546875,0.0247802734375,1.001220703125,3.00567626953125,-2.863616943359375,-0.800018310546875,1,1.0,1.0,1.0,1.0,100.00
2021-08-26 21:10:25.978,1.0050687,0.0,0.0,1.4503957,0.8746807,0.0,0.0,1.0807788,0.9157426,0.0,0.0,1.1905838,0.91392404,0.0,0.0,0.8616552,0.8202196,0.0,0.0,0.86802757,806.6667,768.3883,787.72894,814.3223,724.4689,-0.10955810546875,0.0247802734375,1.001220703125,3.00567626953125,-2.863616943359375,-0.800018310546875,1,1.0,1.0,1.0,1.0,100.00
2021-08-26 21:10:25.979,1.0050687,0.0,0.0,1.4503957,0.8746807,0.0,0.0,1.0807788,0.9157426,0.0,0.0,1.1905838,0.91392404,0.0,0.0,0.8616552,0.8202196,0.0,0.0,0.86802757,815.12823,753.47986,817.9487,915.8608,846.55676,-0.10955810546875,0.0247802734375,1.001220703125,3.00567626953125,-2.863616943359375,-0.800018310546875,1,1.0,1.0,1.0,1.0,100.00
2021-08-26 21:10:25.979,1.0050687,0.0,0.0,1.4503957,0.8746807,0.0,0.0,1.0807788,0.9157426,0.0,0.0,1.1905838,0.91392404,0.0,0.0,0.8616552,0.8202196,0.0,0.0,0.86802757,795.38464,773.6264,836.8865,898.93774,830.0366,-0.10955810546875,0.0247802734375,1.001220703125,3.00567626953125,-2.863616943359375,-0.800018310546875,1,1.0,1.0,1.0,1.0,100.00
2021-08-26 21:10:25.979,1.0050687,0.0,0.0,1.4503957,0.8746807,0.0,0.0,1.0807788,0.9157426,0.0,0.0,1.1905838,0.91392404,0.0,0.0,0.8616552,0.8202196,0.0,0.0,0.86802757,776.04395,789.7436,826.8132,836.8865,754.2857,-0.10955810546875,0.0247802734375,1.001220703125,3.00567626953125,-2.863616943359375,-0.800018310546875,1,1.0,1.0,1.0,1.0,100.00
2021-08-26 21:10:25.980,1.0050687,0.0,0.0,1.4503957,0.8746807,0.0,0.0,1.0807788,0.9157426,0.0,0.0,1.1905838,0.91392404,0.0,0.0,0.8616552,0.8202196,0.0,0.0,0.86802757,818.7546,772.4176,822.381,820.3663,692.6374,-0.10955810546875,0.0247802734375,1.001220703125,3.00567626953125,-2.863616943359375,-0.800018310546875,1,1.0,1.0,1.0,1.0,100.00
2021-08-26 21:10:25.980,1.0050687,0.0,0.0,1.4503957,0.8746807,0.0,0.0,1.0807788,0.9157426,0.0,0.0,1.1905838,0.91392404,0.0,0.0,0.8616552,0.8202196,0.0,0.0,0.86802757,788.93774,780.87915,823.1868,852.1978,793.7729,-0.10955810546875,0.0247802734375,1.001220703125,3.00567626953125,-2.863616943359375,-0.800018310546875,1,1.0,1.0,1.0,1.0,100.00
2021-08-26 21:10:25.980,1.0050687,0.0,0.0,1.4503957,0.8746807,0.0,0.0,1.0807788,0.9157426,0.0,0.0,1.1905838,0.91392404,0.0,0.0,0.8616552,0.8202196,0.0,0.0,0.86802757,784.90845,793.7729,832.0513,890.4762,952.1245,-0.10955810546875,0.0247802734375,1.001220703125,3.00567626953125,-2.863616943359375,-0.800018310546875,1,1.0,1.0,1.0,1.0,100.00
2021-08-26 21:10:25.981,1.0050687,0.0,0.0,1.4503957,0.8746807,0.0,0.0,1.0807788,0.9157426,0.0,0.0,1.1905838,0.91392404,0.0,0.0,0.8616552,0.8202196,0.0,0.0,0.86802757,823.1868,790.9524,815.9341,859.85345,1138.6813,-0.10955810546875,0.0247802734375,1.001220703125,3.00567626953125,-2.863616943359375,-0.800018310546875,1,1.0,1.0,1.0,1.0,100.00
2021-08-26 21:10:25.981,1.0050687,0.0,0.0,1.4503957,0.8746807,0.0,0.0,1.0807788,0.9157426,0.0,0.0,1.1905838,0.91392404,0.0,0.0,0.8616552,0.8202196,0.0,0.0,0.86802757,799.011,765.16486,828.022,797.8022,970.65936,-0.10955810546875,0.0247802734375,1.001220703125,3.00567626953125,-2.863616943359375,-0.800018310546875,1,1.0,1.0,1.0,1.0,100.00
2021-08-26 21:10:25.981,1.0050687,0.0,0.0,1.4503957,0.8746807,0.0,0.0,1.0807788,0.9157426,0.0,0.0,1.1905838,0.91392404,0.0,0.0,0.8616552,0.8202196,0.0,0.0,0.86802757,745.0183,778.86444,861.06226,804.2491,581.02563,-0.10955810546875,0.0247802734375,1.001220703125,3.00567626953125,-2.863616943359375,-0.800018310546875,1,1.0,1.0,1.0,1.0,100.00
2021-08-26 21:10:25.982,1.0050687,0.0,0.0,1.4503957,0.8746807,0.0,0.0,1.0807788,0.9157426,0.0,0.0,1.1905838,0.91392404,0.0,0.0,0.8616552,0.8202196,0.0,0.0,0.86802757,801.8315,782.0879,835.2747,861.06226,675.31134,-0.10955810546875,0.0247802734375,1.001220703125,3.00567626953125,-2.863616943359375,-0.800018310546875,1,1.0,1.0,1.0,1.0,100.00
2021-08-26 21:10:26.011,1.0050687,0.0,0.0,1.4503957,0.8746807,0.0,0.0,1.0807788,0.9157426,0.0,0.0,1.1905838,0.91392404,0.0,0.0,0.8616552,0.8202196,0.0,0.0,0.86802757,864.68866,777.25275,833.2601,912.6374,940.0366,-0.11041259765625,0.02301025390625,0.99847412109375,3.4393310546875,-2.97576904296875,-1.831817626953125,1,1.0,1.0,1.0,1.0,100.00
2021-08-26 21:10:26.012,1.0050687,0.0,0.0,1.4503957,0.8746807,0.0,0.0,1.0807788,0.9157426,0.0,0.0,1.1905838,0.91392404,0.0,0.0,0.8616552,0.8202196,0.0,0.0,0.86802757,799.011,773.22345,837.6923,853.8095,884.43225,-0.11041259765625,0.02301025390625,0.99847412109375,3.4393310546875,-2.97576904296875,-1.831817626953125,1,1.0,1.0,1.0,1.0,100.00
2021-08-26 21:10:26.012,1.0050687,0.0,0.0,1.4503957,0.8746807,0.0,0.0,1.0807788,0.9157426,0.0,0.0,1.1905838,0.91392404,0.0,0.0,0.8616552,0.8202196,0.0,0.0,0.86802757,807.47253,761.9414,835.2747,842.52747,677.72894,-0.11041259765625,0.02301025390625,0.99847412109375,3.4393310546875,-2.97576904296875,-1.831817626953125,1,1.0,1.0,1.0,1.0,100.00
2021-08-26 21:10:26.012,1.0050687,0.0,0.0,1.4503957,0.8746807,0.0,0.0,1.0807788,0.9157426,0.0,0.0,1.1905838,0.91392404,0.0,0.0,0.8616552,0.8202196,0.0,0.0,0.86802757,792.1612,767.98535,867.9121,843.3333,574.9817,-0.11041259765625,0.02301025390625,0.99847412109375,3.4393310546875,-2.97576904296875,-1.831817626953125,1,1.0,1.0,1.0,1.0,100.00
2021-08-26 21:10:26.013,1.0050687,0.0,0.0,1.4503957,0.8746807,0.0,0.0,1.0807788,0.9157426,0.0,0.0,1.1905838,0.91392404,0.0,0.0,0.8616552,0.8202196,0.0,0.0,0.86802757,745.82416,768.7912,838.9011,816.7399,685.78754,-0.11041259765625,0.02301025390625,0.99847412109375,3.4393310546875,-2.97576904296875,-1.831817626953125,1,1.0,1.0,1.0,1.0,100.00
2021-08-26 21:10:26.013,1.0050687,0.0,0.0,1.4503957,0.8746807,0.0,0.0,1.0807788,0.9157426,0.0,0.0,1.1905838,0.91392404,0.0,0.0,0.8616552,0.8202196,0.0,0.0,0.86802757,747.03296,766.3736,832.4542,844.94507,960.18317,-0.11041259765625,0.02301025390625,0.99847412109375,3.4393310546875,-2.97576904296875,-1.831817626953125,1,1.0,1.0,1.0,1.0,100.00
2021-08-26 21:10:26.013,1.0050687,0.0,0.0,1.4503957,0.8746807,0.0,0.0,1.0807788,0.9157426,0.0,0.0,1.1905838,0.91392404,0.0,0.0,0.8616552,0.8202196,0.0,0.0,0.86802757,809.0842,753.0769,860.2564,874.7619,946.8865,-0.11041259765625,0.02301025390625,0.99847412109375,3.4393310546875,-2.97576904296875,-1.831817626953125,1,1.0,1.0,1.0,1.0,100.00
2021-08-26 21:10:26.014,1.0050687,0.0,0.0,1.4503957,0.8746807,0.0,0.0,1.0807788,0.9157426,0.0,0.0,1.1905838,0.91392404,0.0,0.0,0.8616552,0.8202196,0.0,0.0,0.86802757,804.65204,751.06226,848.1685,861.06226,757.9121,-0.11041259765625,0.02301025390625,0.99847412109375,3.4393310546875,-2.97576904296875,-1.831817626953125,1,1.0,1.0,1.0,1.0,100.00
2021-08-26 21:10:26.014,1.0050687,0.0,0.0,1.4503957,0.8746807,0.0,0.0,1.0807788,0.9157426,0.0,0.0,1.1905838,0.91392404,0.0,0.0,0.8616552,0.8202196,0.0,0.0,0.86802757,788.1319,772.4176,838.9011,810.293,750.2564,-0.11041259765625,0.02301025390625,0.99847412109375,3.4393310546875,-2.97576904296875,-1.831817626953125,1,1.0,1.0,1.0,1.0,100.00
2021-08-26 21:10:26.014,1.0050687,0.0,0.0,1.4503957,0.8746807,0.0,0.0,1.0807788,0.9157426,0.0,0.0,1.1905838,0.91392404,0.0,0.0,0.8616552,0.8202196,0.0,0.0,0.86802757,782.0879,768.7912,850.18317,844.5421,654.7619,-0.11041259765625,0.02301025390625,0.99847412109375,3.4393310546875,-2.97576904296875,-1.831817626953125,1,1.0,1.0,1.0,1.0,100.00
2021-08-26 21:10:26.015,1.0050687,0.0,0.0,1.4503957,0.8746807,0.0,0.0,1.0807788,0.9157426,0.0,0.0,1.1905838,0.91392404,0.0,0.0,0.8616552,0.8202196,0.0,0.0,0.86802757,789.7436,747.8388,865.89746,898.5348,774.43225,-0.11041259765625,0.02301025390625,0.99847412109375,3.4393310546875,-2.97576904296875,-1.831817626953125,1,1.0,1.0,1.0,1.0,100.00
2021-08-26 21:10:26.015,1.0050687,0.0,0.0,1.4503957,0.8746807,0.0,0.0,1.0807788,0.9157426,0.0,0.0,1.1905838,0.91392404,0.0,0.0,0.8616552,0.8202196,0.0,0.0,0.86802757,831.6484,769.19415,852.6007,864.68866,995.64105,-0.11041259765625,0.02301025390625,0.99847412109375,3.4393310546875,-2.97576904296875,-1.831817626953125,1,2.0,1.0,1.0,2.0,100.00
2021-08-26 21:10:26.071,1.0050687,0.0,0.0,1.4503957,0.8746807,0.0,0.0,1.0807788,0.9157426,0.0,0.0,1.1905838,0.91392404,0.0,0.0,0.8616552,0.8202196,0.0,0.0,0.86802757,837.6923,750.2564,861.4652,877.98535,799.011,-0.1131591796875,0.02520751953125,1.00244140625,4.306640625,-3.75335693359375,-1.996307373046875,1,2.0,1.0,1.0,2.0,100.00
2021-08-26 21:10:26.071,1.0050687,0.0,0.0,1.4503957,0.8746807,0.0,0.0,1.0807788,0.9157426,0.0,0.0,1.1905838,0.91392404,0.0,0.0,0.8616552,0.8202196,0.0,0.0,0.86802757,759.92676,753.47986,868.315,864.2857,570.14655,-0.1131591796875,0.02520751953125,1.00244140625,4.306640625,-3.75335693359375,-1.996307373046875,1,2.0,1.0,1.0,2.0,100.00
2021-08-26 21:10:26.072,1.0050687,0.0,0.0,1.4503957,0.8746807,0.0,0.0,1.0807788,0.9157426,0.0,0.0,1.1905838,0.91392404,0.0,0.0,0.8616552,0.8202196,0.0,0.0,0.86802757,769.19415,760.32965,882.4176,859.0476,621.7216,-0.1131591796875,0.02520751953125,1.00244140625,4.306640625,-3.75335693359375,-1.996307373046875,1,2.0,1.0,1.0,2.0,100.00
2021-08-26 21:10:26.072,1.0050687,0.0,0.0,1.4503957,0.8746807,0.0,0.0,1.0807788,0.9157426,0.0,0.0,1.1905838,0.91392404,0.0,0.0,0.8616552,0.8202196,0.0,0.0,0.86802757,852.6007,764.35895,873.5531,887.6557,898.93774,-0.1131591796875,0.02520751953125,1.00244140625,4.306640625,-3.75335693359375,-1.996307373046875,1,2.0,1.0,1.0,2.0,100.00
2021-08-26 21:10:26.072,1.0050687,0.0,0.0,1.4503957,0.8746807,0.0,0.0,1.0807788,0.9157426,0.0,0.0,1.1905838,0.91392404,0.0,0.0,0.8616552,0.8202196,0.0,0.0,0.86802757,817.1429,761.9414,875.16486,888.86444,1002.0879,-0.1131591796875,0.02520751953125,1.00244140625,4.306640625,-3.75335693359375,-1.996307373046875,1,2.0,1.0,1.0,2.0,100.00
2021-08-26 21:10:26.073,1.0050687,0.0,0.0,1.4503957,0.8746807,0.0,0.0,1.0807788,0.9157426,0.0,0.0,1.1905838,0.91392404,0.0,0.0,0.8616552,0.8202196,0.0,0.0,0.86802757,765.56775,751.8681,886.8498,839.707,836.8865,-0.1131591796875,0.02520751953125,1.00244140625,4.306640625,-3.75335693359375,-1.996307373046875,1,2.0,1.0,1.0,2.0,100.00
2021-08-26 21:10:26.073,1.0050687,0.0,0.0,1.4503957,0.8746807,0.0,0.0,1.0807788,0.9157426,0.0,0.0,1.1905838,0.91392404,0.0,0.0,0.8616552,0.8202196,0.0,0.0,0.86802757,813.5165,754.68866,884.43225,815.12823,714.3956,-0.1131591796875,0.02520751953125,1.00244140625,4.306640625,-3.75335693359375,-1.996307373046875,1,2.0,1.0,1.0,2.0,100.00
2021-08-26 21:10:26.073,1.0050687,0.0,0.0,1.4503957,0.8746807,0.0,0.0,1.0807788,0.9157426,0.0,0.0,1.1905838,0.91392404,0.0,0.0,0.8616552,0.8202196,0.0,0.0,0.86802757,802.23444,742.1978,884.83514,854.61536,868.315,-0.1131591796875,0.02520751953125,1.00244140625,4.306640625,-3.75335693359375,-1.996307373046875,1,2.0,1.0,1.0,2.0,100.00
2021-08-26 21:10:26.073,1.0050687,0.0,0.0,1.4503957,0.8746807,0.0,0.0,1.0807788,0.9157426,0.0,0.0,1.1905838,0.91392404,0.0,0.0,0.8616552,0.8202196,0.0,0.0,0.86802757,766.77655,774.83514,875.9707,832.8571,1056.8865,-0.1131591796875,0.02520751953125,1.00244140625,4.306640625,-3.75335693359375,-1.996307373046875,1,2.0,1.0,1.0,2.0,100.00
2021-08-26 21:10:26.074,1.0050687,0.0,0.0,1.4503957,0.8746807,0.0,0.0,1.0807788,0.9157426,0.0,0.0,1.1905838,0.91392404,0.0,0.0,0.8616552,0.8202196,0.0,0.0,0.86802757,792.5641,772.8205,884.43225,867.50916,968.24176,-0.1131591796875,0.02520751953125,1.00244140625,4.306640625,-3.75335693359375,-1.996307373046875,1,2.0,1.0,1.0,2.0,100.00
2021-08-26 21:10:26.074,1.0050687,0.0,0.0,1.4503957,0.8746807,0.0,0.0,1.0807788,0.9157426,0.0,0.0,1.1905838,0.91392404,0.0,0.0,0.8616552,0.8202196,0.0,0.0,0.86802757,845.34796,756.7033,897.72894,868.315,848.5714,-0.1131591796875,0.02520751953125,1.00244140625,4.306640625,-3.75335693359375,-1.996307373046875,1,2.0,1.0,1.0,2.0,100.00
2021-08-26 21:10:26.074,1.0050687,0.0,0.0,1.4503957,0.8746807,0.0,0.0,1.0807788,0.9157426,0.0,0.0,1.1905838,0.91392404,0.0,0.0,0.8616552,0.8202196,0.0,0.0,0.86802757,814.3223,763.5531,902.5641,856.2271,675.31134,-0.1131591796875,0.02520751953125,1.00244140625,4.306640625,-3.75335693359375,-1.996307373046875,1,2.0,1.0,1.0,2.0,100.00
2021-08-26 21:10:26.104,1.0050687,0.0,0.0,1.4503957,0.8746807,0.0,0.0,1.0807788,0.9157426,0.0,0.0,1.1905838,0.91392404,0.0,0.0,0.8616552,0.8202196,0.0,0.0,0.86802757,789.34064,771.2088,898.1319,865.89746,512.1245,-0.1131591796875,0.02520751953125,1.00244140625,4.306640625,-3.75335693359375,-1.996307373046875,1,2.0,1.0,1.0,2.0,100.00
2021-08-26 21:10:26.105,1.0050687,0.0,0.0,1.4503957,0.8746807,0.0,0.0,1.0807788,0.9157426,0.0,0.0,1.1905838,0.91392404,0.0,0.0,0.8616552,0.8202196,0.0,0.0,0.86802757,796.1905,774.0293,902.1612,850.58606,659.19415,-0.1131591796875,0.02520751953125,1.00244140625,4.306640625,-3.75335693359375,-1.996307373046875,1,2.0,1.0,1.0,2.0,100.00
2021-08-26 21:10:26.105,1.0050687,0.0,0.0,1.4503957,0.8746807,0.0,0.0,1.0807788,0.9157426,0.0,0.0,1.1905838,0.91392404,0.0,0.0,0.8616552,0.8202196,0.0,0.0,0.86802757,807.0696,754.2857,925.5311,871.53845,925.5311,-0.1131591796875,0.02520751953125,1.00244140625,4.306640625,-3.75335693359375,-1.996307373046875,1,2.0,1.0,1.0,2.0,100.00
2021-08-26 21:10:26.105,1.0050687,0.0,0.0,1.4503957,0.8746807,0.0,0.0,1.0807788,0.9157426,0.0,0.0,1.1905838,0.91392404,0.0,0.0,0.8616552,0.8202196,0.0,0.0,0.86802757,795.38464,768.3883,932.7839,831.6484,858.24176,-0.1131591796875,0.02520751953125,1.00244140625,4.306640625,-3.75335693359375,-1.996307373046875,1,2.0,1.0,1.0,2.0,100.00
2021-08-26 21:10:26.106,1.0050687,0.0,0.0,1.4503957,0.8746807,0.0,0.0,1.0807788,0.9157426,0.0,0.0,1.1905838,0.91392404,0.0,0.0,0.8616552,0.8202196,0.0,0.0,0.86802757,789.7436,767.98535,938.8278,794.9817,607.619,-0.1131591796875,0.02520751953125,1.00244140625,4.306640625,-3.75335693359375,-1.996307373046875,1,2.0,1.0,1.0,2.0,100.00
2021-08-26 21:10:26.106,1.0050687,0.0,0.0,1.4503957,0.8746807,0.0,0.0,1.0807788,0.9157426,0.0,0.0,1.1905838,0.91392404,0.0,0.0,0.8616552,0.8202196,0.0,0.0,0.86802757,811.50183,743.4066,946.08057,842.1245,593.5165,-0.1131591796875,0.02520751953125,1.00244140625,4.306640625,-3.75335693359375,-1.996307373046875,1,2.0,1.0,1.0,2.0,100.00
2021-08-26 21:10:26.106,1.0050687,0.0,0.0,1.4503957,0.8746807,0.0,0.0,1.0807788,0.9157426,0.0,0.0,1.1905838,0.91392404,0.0,0.0,0.8616552,0.8202196,0.0,0.0,0.86802757,796.1905,764.7619,938.4249,856.63007,921.0989,-0.1131591796875,0.02520751953125,1.00244140625,4.306640625,-3.75335693359375,-1.996307373046875,1,2.0,1.0,1.0,2.0,100.00
2021-08-26 21:10:26.107,1.0050687,0.0,0.0,1.4503957,0.8746807,0.0,0.0,1.0807788,0.9157426,0.0,0.0,1.1905838,0.91392404,0.0,0.0,0.8616552,0.8202196,0.0,0.0,0.86802757,813.5165,774.43225,955.7509,869.92676,1187.4359,-0.1131591796875,0.02520751953125,1.00244140625,4.306640625,-3.75335693359375,-1.996307373046875,1,2.0,1.0,1.0,2.0,100.00
2021-08-26 21:10:26.107,1.0050687,0.0,0.0,1.4503957,0.8746807,0.0,0.0,1.0807788,0.9157426,0.0,0.0,1.1905838,0.91392404,0.0,0.0,0.8616552,0.8202196,0.0,0.0,0.86802757,804.2491,764.35895,975.89746,864.68866,894.5055,-0.1131591796875,0.02520751953125,1.00244140625,4.306640625,-3.75335693359375,-1.996307373046875,1,2.0,1.0,1.0,2.0,100.00
2021-08-26 21:10:26.107,1.0050687,0.0,0.0,1.4503957,0.8746807,0.0,0.0,1.0807788,0.9157426,0.0,0.0,1.1905838,0.91392404,0.0,0.0,0.8616552,0.8202196,0.0,0.0,0.86802757,791.3553,765.9707,963.8095,847.76556,566.9231,-0.1131591796875,0.02520751953125,1.00244140625,4.306640625,-3.75335693359375,-1.996307373046875,1,2.0,1.0,1.0,2.0,100.00
2021-08-26 21:10:26.108,1.0050687,0.0,0.0,1.4503957,0.8746807,0.0,0.0,1.0807788,0.9157426,0.0,0.0,1.1905838,0.91392404,0.0,0.0,0.8616552,0.8202196,0.0,0.0,0.86802757,778.0586,776.4469,968.24176,843.3333,582.23444,-0.1131591796875,0.02520751953125,1.00244140625,4.306640625,-3.75335693359375,-1.996307373046875,1,2.0,1.0,1.0,2.0,100.00
2021-08-26 21:10:26.108,1.0050687,0.0,0.0,1.4503957,0.8746807,0.0,0.0,1.0807788,0.9157426,0.0,0.0,1.1905838,0.91392404,0.0,0.0,0.8616552,0.8202196,0.0,0.0,0.86802757,767.5824,765.56775,995.2381,866.30035,681.3553,-0.1131591796875,0.02520751953125,1.00244140625,4.306640625,-3.75335693359375,-1.996307373046875,1,2.0,1.0,1.0,2.0,100.00
2021-08-26 21:10:26.179,1.0050687,0.0,0.0,1.4503957,0.8746807,0.0,0.0,1.0807788,0.9157426,0.0,0.0,1.1905838,0.91392404,0.0,0.0,0.8616552,0.8202196,0.0,0.0,0.86802757,802.23444,751.8681,1028.2784,875.56775,786.52014,-0.1063232421875,0.0223388671875,0.99786376953125,4.366455078125,-4.88983154296875,-1.562652587890625,1,2.0,1.0,1.0,2.0,100.00
2021-08-26 21:10:26.180,1.0050687,0.0,0.0,1.4503957,0.8746807,0.0,0.0,1.0807788,0.9157426,0.0,0.0,1.1905838,0.91392404,0.0,0.0,0.8616552,0.8202196,0.0,0.0,0.86802757,808.68134,768.3883,1031.0989,830.4396,800.6227,-0.1063232421875,0.0223388671875,0.99786376953125,4.366455078125,-4.88983154296875,-1.562652587890625,1,2.0,1.0,1.0,2.0,100.00
2021-08-26 21:10:26.182,1.0050687,0.0,0.0,1.4503957,0.8746807,0.0,0.0,1.0807788,0.9157426,0.0,0.0,1.1905838,0.91392404,0.0,0.0,0.8616552,0.8202196,0.0,0.0,0.86802757,800.6227,757.1062,1027.8755,838.9011,667.25275,-0.1063232421875,0.0223388671875,0.99786376953125,4.366455078125,-4.88983154296875,-1.562652587890625,1,2.0,1.0,1.0,2.0,100.00
2021-08-26 21:10:26.182,1.0050687,0.0,0.0,1.4503957,0.8746807,0.0,0.0,1.0807788,0.9157426,0.0,0.0,1.1905838,0.91392404,0.0,0.0,0.8616552,0.8202196,0.0,0.0,0.86802757,794.17584,730.5128,1038.3517,857.8388,560.07324,-0.1063232421875,0.0223388671875,0.99786376953125,4.366455078125,-4.88983154296875,-1.562652587890625,1,2.0,1.0,1.0,2.0,100.00
2021-08-26 21:10:26.183,1.0050687,0.0,0.0,1.4503957,0.8746807,0.0,0.0,1.0807788,0.9157426,0.0,0.0,1.1905838,0.91392404,0.0,0.0,0.8616552,0.8202196,0.0,0.0,0.86802757,792.1612,735.34796,1030.6959,838.49817,680.9524,-0.1063232421875,0.0223388671875,0.99786376953125,4.366455078125,-4.88983154296875,-1.562652587890625,1,2.0,1.0,1.0,2.0,100.00
2021-08-26 21:10:26.183,1.0050687,0.0,0.0,1.4503957,0.8746807,0.0,0.0,1.0807788,0.9157426,0.0,0.0,1.1905838,0.91392404,0.0,0.0,0.8616552,0.8202196,0.0,0.0,0.86802757,815.12823,748.24176,1019.011,872.74725,964.21246,-0.1063232421875,0.0223388671875,0.99786376953125,4.366455078125,-4.88983154296875,-1.562652587890625,1,2.0,1.0,1.0,2.0,100.00
2021-08-26 21:10:26.183,1.0050687,0.0,0.0,1.4503957,0.8746807,0.0,0.0,1.0807788,0.9157426,0.0,0.0,1.1905838,0.91392404,0.0,0.0,0.8616552,0.8202196,0.0,0.0,0.86802757,820.3663,773.22345,1023.0403,866.30035,1220.4762,-0.1063232421875,0.0223388671875,0.99786376953125,4.366455078125,-4.88983154296875,-1.562652587890625,1,2.0,1.0,1.0,2.0,100.00
2021-08-26 21:10:26.183,1.0050687,0.0,0.0,1.4503957,0.8746807,0.0,0.0,1.0807788,0.9157426,0.0,0.0,1.1905838,0.91392404,0.0,0.0,0.8616552,0.8202196,0.0,0.0,0.86802757,798.20514,776.4469,1040.3663,823.1868,1042.381,-0.1063232421875,0.0223388671875,0.99786376953125,4.366455078125,-4.88983154296875,-1.562652587890625,1,2.0,1.0,1.0,2.0,100.00
2021-08-26 21:10:26.184,1.0050687,0.0,0.0,1.4503957,0.8746807,0.0,0.0,1.0807788,0.9157426,0.0,0.0,1.1905838,0.91392404,0.0,0.0,0.8616552,0.8202196,0.0,0.0,0.86802757,774.0293,768.7912,1026.6666,796.5934,660.0,-0.1063232421875,0.0223388671875,0.99786376953125,4.366455078125,-4.88983154296875,-1.562652587890625,1,2.0,1.0,1.0,2.0,100.00
2021-08-26 21:10:26.184,1.0050687,0.0,0.0,1.4503957,0.8746807,0.0,0.0,1.0807788,0.9157426,0.0,0.0,1.1905838,0.91392404,0.0,0.0,0.8616552,0.8202196,0.0,0.0,0.86802757,780.07324,770.40295,1020.6227,837.28937,704.3223,-0.1063232421875,0.0223388671875,0.99786376953125,4.366455078125,-4.88983154296875,-1.562652587890625,1,2.0,1.0,1.0,2.0,100.00
2021-08-26 21:10:26.184,1.0050687,0.0,0.0,1.4503957,0.8746807,0.0,0.0,1.0807788,0.9157426,0.0,0.0,1.1905838,0.91392404,0.0,0.0,0.8616552,0.8202196,0.0,0.0,0.86802757,799.41394,759.92676,1033.9194,882.8205,987.98535,-0.1063232421875,0.0223388671875,0.99786376953125,4.366455078125,-4.88983154296875,-1.562652587890625,1,2.0,1.0,1.0,2.0,100.00
2021-08-26 21:10:26.185,1.0050687,0.0,0.0,1.4503957,0.8746807,0.0,0.0,1.0807788,0.9157426,0.0,0.0,1.1905838,0.91392404,0.0,0.0,0.8616552,0.8202196,0.0,0.0,0.86802757,825.2015,756.30035,1028.2784,846.9597,960.18317,-0.1063232421875,0.0223388671875,0.99786376953125,4.366455078125,-4.88983154296875,-1.562652587890625,1,2.0,1.0,1.0,2.0,100.00
2021-08-26 21:10:26.210,1.0050687,0.0,0.0,1.4503957,0.8746807,0.0,0.0,1.0807788,0.9157426,0.0,0.0,1.1905838,0.91392404,0.0,0.0,0.8616552,0.8202196,0.0,0.0,0.86802757,822.7839,772.8205,1035.1282,815.5311,716.0073,-0.10748291015625,0.02313232421875,1.00067138671875,4.7552490234375,-4.373931884765625,-0.934600830078125,1,2.0,1.0,1.0,2.0,100.00
2021-08-26 21:10:26.211,1.0050687,0.0,0.0,1.4503957,0.8746807,0.0,0.0,1.0807788,0.9157426,0.0,0.0,1.1905838,0.91392404,0.0,0.0,0.8616552,0.8202196,0.0,0.0,0.86802757,787.72894,770.40295,1041.978,791.3553,579.81683,-0.10748291015625,0.02313232421875,1.00067138671875,4.7552490234375,-4.373931884765625,-0.934600830078125,1,2.0,1.0,1.0,2.0,100.00
2021-08-26 21:10:26.211,1.0050687,0.0,0.0,1.4503957,0.8746807,0.0,0.0,1.0807788,0.9157426,0.0,0.0,1.1905838,0.91392404,0.0,0.0,0.8616552,0.8202196,0.0,0.0,0.86802757,792.5641,752.674,1044.3956,833.663,666.4469,-0.10748291015625,0.02313232421875,1.00067138671875,4.7552490234375,-4.373931884765625,-0.934600830078125,1,2.0,1.0,1.0,2.0,100.00
2021-08-26 21:10:26.211,1.0050687,0.0,0.0,1.4503957,0.8746807,0.0,0.0,1.0807788,0.9157426,0.0,0.0,1.1905838,0.91392404,0.0,0.0,0.8616552,0.8202196,0.0,0.0,0.86802757,786.1172,764.7619,1048.4249,865.4945,869.5238,-0.10748291015625,0.02313232421875,1.00067138671875,4.7552490234375,-4.373931884765625,-0.934600830078125,1,2.0,1.0,1.0,2.0,100.00
2021-08-26 21:10:26.212,1.0050687,0.0,0.0,1.4503957,0.8746807,0.0,0.0,1.0807788,0.9157426,0.0,0.0,1.1905838,0.91392404,0.0,0.0,0.8616552,0.8202196,0.0,0.0,0.86802757,805.8608,761.53845,1050.8425,865.4945,899.34064,-0.10748291015625,0.02313232421875,1.00067138671875,4.7552490234375,-4.373931884765625,-0.934600830078125,1,2.0,1.0,1.0,2.0,100.00
2021-08-26 21:10:26.212,1.0050687,0.0,0.0,1.4503957,0.8746807,0.0,0.0,1.0807788,0.9157426,0.0,0.0,1.1905838,0.91392404,0.0,0.0,0.8616552,0.8202196,0.0,0.0,0.86802757,815.5311,769.19415,1050.0366,843.73627,859.0476,-0.10748291015625,0.02313232421875,1.00067138671875,4.7552490234375,-4.373931884765625,-0.934600830078125,1,2.0,1.0,1.0,2.0,100.00
2021-08-26 21:10:26.212,1.0050687,0.0,0.0,1.4503957,0.8746807,0.0,0.0,1.0807788,0.9157426,0.0,0.0,1.1905838,0.91392404,0.0,0.0,0.8616552,0.8202196,0.0,0.0,0.86802757,808.2784,779.67035,1048.4249,840.10986,870.32965,-0.10748291015625,0.02313232421875,1.00067138671875,4.7552490234375,-4.373931884765625,-0.934600830078125,1,2.0,1.0,1.0,2.0,100.00
2021-08-26 21:10:26.212,1.0050687,0.0,0.0,1.4503957,0.8746807,0.0,0.0,1.0807788,0.9157426,0.0,0.0,1.1905838,0.91392404,0.0,0.0,0.8616552,0.8202196,0.0,0.0,0.86802757,775.64105,776.8498,1066.5568,830.0366,765.16486,-0.10748291015625,0.02313232421875,1.00067138671875,4.7552490234375,-4.373931884765625,-0.934600830078125,1,2.0,1.0,1.0,2.0,100.00
2021-08-26 21:10:26.213,1.0050687,0.0,0.0,1.4503957,0.8746807,0.0,0.0,1.0807788,0.9157426,0.0,0.0,1.1905838,0.91392404,0.0,0.0,0.8616552,0.8202196,0.0,0.0,0.86802757,759.12085,778.86444,1042.7839,824.3956,921.50183,-0.10748291015625,0.02313232421875,1.00067138671875,4.7552490234375,-4.373931884765625,-0.934600830078125,1,2.0,1.0,1.0,2.0,100.00
2021-08-26 21:10:26.213,1.0050687,0.0,0.0,1.4503957,0.8746807,0.0,0.0,1.0807788,0.9157426,0.0,0.0,1.1905838,0.91392404,0.0,0.0,0.8616552,0.8202196,0.0,0.0,0.86802757,765.16486,778.0586,1010.9524,849.7802,1104.8352,-0.10748291015625,0.02313232421875,1.00067138671875,4.7552490234375,-4.373931884765625,-0.934600830078125,1,2.0,1.0,1.0,2.0,100.00
2021-08-26 21:10:26.213,1.0050687,0.0,0.0,1.4503957,0.8746807,0.0,0.0,1.0807788,0.9157426,0.0,0.0,1.1905838,0.91392404,0.0,0.0,0.8616552,0.8202196,0.0,0.0,0.86802757,801.02563,774.83514,1040.7693,834.0659,917.0696,-0.10748291015625,0.02313232421875,1.00067138671875,4.7552490234375,-4.373931884765625,-0.934600830078125,1,2.0,1.0,1.0,2.0,100.00
2021-08-26 21:10:26.213,1.0050687,0.0,0.0,1.4503957,0.8746807,0.0,0.0,1.0807788,0.9157426,0.0,0.0,1.1905838,0.91392404,0.0,0.0,0.8616552,0.8202196,0.0,0.0,0.86802757,809.0842,774.0293,1057.2894,805.05493,573.7729,-0.10748291015625,0.02313232421875,1.00067138671875,4.7552490234375,-4.373931884765625,-0.934600830078125,1,2.0,1.0,1.0,2.0,100.00
2021-08-26 21:10:26.244,1.0050687,0.0,0.0,1.4503957,0.8746807,0.0,0.0,1.0807788,0.9157426,0.0,0.0,1.1905838,0.91392404,0.0,0.0,0.8616552,0.8202196,0.0,0.0,0.86802757,766.77655,777.6557,1060.1099,793.7729,546.3736,-0.109375,0.02532958984375,1.00140380859375,5.63751220703125,-4.3963623046875,-0.471038818359375,1,2.0,1.0,1.0,2.0,100.00
2021-08-26 21:10:26.245,1.0050687,0.0,0.0,1.4503957,0.8746807,0.0,0.0,1.0807788,0.9157426,0.0,0.0,1.1905838,0.91392404,0.0,0.0,0.8616552,0.8202196,0.0,0.0,0.86802757,797.3993,769.59705,1060.9158,820.3663,815.5311,-0.109375,0.02532958984375,1.00140380859375,5.63751220703125,-4.3963623046875,-0.471038818359375,1,2.0,1.0,1.0,2.0,100.00
2021-08-26 21:10:26.245,1.0050687,0.0,0.0,1.4503957,0.8746807,0.0,0.0,1.0807788,0.9157426,0.0,0.0,1.1905838,0.91392404,0.0,0.0,0.8616552,0.8202196,0.0,0.0,0.86802757,809.0842,763.95605,1039.9634,840.5128,937.2161,-0.109375,0.02532958984375,1.00140380859375,5.63751220703125,-4.3963623046875,-0.471038818359375,1,2.0,1.0,1.0,2.0,100.00
2021-08-26 21:10:26.246,1.0050687,0.0,0.0,1.4503957,0.8746807,0.0,0.0,1.0807788,0.9157426,0.0,0.0,1.1905838,0.91392404,0.0,0.0,0.8616552,0.8202196,0.0,0.0,0.86802757,761.53845,770.80585,1035.9341,822.7839,742.1978,-0.109375,0.02532958984375,1.00140380859375,5.63751220703125,-4.3963623046875,-0.471038818359375,1,2.0,1.0,1.0,2.0,100.00
2021-08-26 21:10:26.248,1.0050687,0.0,0.0,1.4503957,0.8746807,0.0,0.0,1.0807788,0.9157426,0.0,0.0,1.1905838,0.91392404,0.0,0.0,0.8616552,0.8202196,0.0,0.0,0.86802757,787.326,775.2381,1041.5751,822.7839,584.2491,-0.109375,0.02532958984375,1.00140380859375,5.63751220703125,-4.3963623046875,-0.471038818359375,1,2.0,1.0,1.0,2.0,100.00
2021-08-26 21:10:26.248,1.0050687,0.0,0.0,1.4503957,0.8746807,0.0,0.0,1.0807788,0.9157426,0.0,0.0,1.1905838,0.91392404,0.0,0.0,0.8616552,0.8202196,0.0,0.0,0.86802757,797.3993,776.04395,1046.8132,843.73627,683.7729,-0.109375,0.02532958984375,1.00140380859375,5.63751220703125,-4.3963623046875,-0.471038818359375,1,2.0,1.0,1.0,2.0,100.00
2021-08-26 21:10:26.248,1.0050687,0.0,0.0,1.4503957,0.8746807,0.0,0.0,1.0807788,0.9157426,0.0,0.0,1.1905838,0.91392404,0.0,0.0,0.8616552,0.8202196,0.0,0.0,0.86802757,788.1319,774.0293,1047.2161,865.89746,899.7436,-0.109375,0.02532958984375,1.00140380859375,5.63751220703125,-4.3963623046875,-0.471038818359375,1,2.0,1.0,1.0,2.0,100.00
2021-08-26 21:10:26.248,1.0050687,0.0,0.0,1.4503957,0.8746807,0.0,0.0,1.0807788,0.9157426,0.0,0.0,1.1905838,0.91392404,0.0,0.0,0.8616552,0.8202196,0.0,0.0,0.86802757,797.3993,770.80585,1028.2784,870.32965,923.91943,-0.109375,0.02532958984375,1.00140380859375,5.63751220703125,-4.3963623046875,-0.471038818359375,1,2.0,1.0,1.0,2.0,100.00
2021-08-26 21:10:26.249,1.0050687,0.0,0.0,1.4503957,0.8746807,0.0,0.0,1.0807788,0.9157426,0.0,0.0,1.1905838,0.91392404,0.0,0.0,0.8616552,0.8202196,0.0,0.0,0.86802757,807.8755,783.2967,1012.1612,861.8681,776.8498,-0.109375,0.02532958984375,1.00140380859375,5.63751220703125,-4.3963623046875,-0.471038818359375,1,2.0,1.0,1.0,2.0,100.00
2021-08-26 21:10:26.249,1.0050687,0.0,0.0,1.4503957,0.8746807,0.0,0.0,1.0807788,0.9157426,0.0,0.0,1.1905838,0.91392404,0.0,0.0,0.8616552,0.8202196,0.0,0.0,0.86802757,782.49084,794.17584,1027.4725,828.8278,767.5824,-0.109375,0.02532958984375,1.00140380859375,5.63751220703125,-4.3963623046875,-0.471038818359375,1,2.0,1.0,1.0,2.0,100.00
2021-08-26 21:10:26.249,1.0050687,0.0,0.0,1.4503957,0.8746807,0.0,0.0,1.0807788,0.9157426,0.0,0.0,1.1905838,0.91392404,0.0,0.0,0.8616552,0.8202196,0.0,0.0,0.86802757,740.989,762.3443,1044.7986,821.978,654.35895,-0.109375,0.02532958984375,1.00140380859375,5.63751220703125,-4.3963623046875,-0.471038818359375,1,2.0,1.0,1.0,2.0,100.00
2021-08-26 21:10:26.249,1.0050687,0.0,0.0,1.4503957,0.8746807,0.0,0.0,1.0807788,0.9157426,0.0,0.0,1.1905838,0.91392404,0.0,0.0,0.8616552,0.8202196,0.0,0.0,0.86802757,759.12085,766.3736,1048.4249,815.12823,720.4396,-0.109375,0.02532958984375,1.00140380859375,5.63751220703125,-4.3963623046875,-0.471038818359375,1,2.0,1.0,1.0,2.0,100.00
2021-08-26 21:10:26.312,1.0050687,0.0,0.0,1.4503957,0.8746807,0.0,0.0,1.0807788,0.9157426,0.0,0.0,1.1905838,0.91392404,0.0,0.0,0.8616552,0.8202196,0.0,0.0,0.86802757,793.36993,780.4762,1030.2931,830.0366,983.1502,-0.11114501953125,0.0250244140625,1.0001220703125,4.957122802734375,-4.2767333984375,-0.814971923828125,1,2.0,1.0,1.0,2.0,100.00
2021-08-26 21:10:26.312,1.0050687,0.0,0.0,1.4503957,0.8746807,0.0,0.0,1.0807788,0.9157426,0.0,0.0,1.1905838,0.91392404,0.0,0.0,0.8616552,0.8202196,0.0,0.0,0.86802757,773.6264,765.56775,1029.4872,845.34796,997.25275,-0.11114501953125,0.0250244140625,1.0001220703125,4.957122802734375,-4.2767333984375,-0.814971923828125,1,2.0,1.0,1.0,2.0,100.00
2021-08-26 21:10:26.313,1.0050687,0.0,0.0,1.4503957,0.8746807,0.0,0.0,1.0807788,0.9157426,0.0,0.0,1.1905838,0.91392404,0.0,0.0,0.8616552,0.8202196,0.0,0.0,0.86802757,758.315,779.2674,1033.9194,794.57874,706.337,-0.11114501953125,0.0250244140625,1.0001220703125,4.957122802734375,-4.2767333984375,-0.814971923828125,1,2.0,1.0,1.0,2.0,100.00
2021-08-26 21:10:26.313,1.0050687,0.0,0.0,1.4503957,0.8746807,0.0,0.0,1.0807788,0.9157426,0.0,0.0,1.1905838,0.91392404,0.0,0.0,0.8616552,0.8202196,0.0,0.0,0.86802757,783.69965,790.9524,1043.9927,810.293,570.9524,-0.11114501953125,0.0250244140625,1.0001220703125,4.957122802734375,-4.2767333984375,-0.814971923828125,1,2.0,1.0,1.0,2.0,100.00
2021-08-26 21:10:26.313,1.0050687,0.0,0.0,1.4503957,0.8746807,0.0,0.0,1.0807788,0.9157426,0.0,0.0,1.1905838,0.91392404,0.0,0.0,0.8616552,0.8202196,0.0,0.0,0.86802757,787.326,794.9817,1052.4542,838.49817,789.34064,-0.11114501953125,0.0250244140625,1.0001220703125,4.957122802734375,-4.2767333984375,-0.814971923828125,1,2.0,1.0,1.0,2.0,100.00
2021-08-26 21:10:26.314,1.0050687,0.0,0.0,1.4503957,0.8746807,0.0,0.0,1.0807788,0.9157426,0.0,0.0,1.1905838,0.91392404,0.0,0.0,0.8616552,0.8202196,0.0,0.0,0.86802757,807.47253,788.5348,1047.2161,882.8205,1029.4872,-0.11114501953125,0.0250244140625,1.0001220703125,4.957122802734375,-4.2767333984375,-0.814971923828125,1,2.0,1.0,1.0,2.0,100.00
2021-08-26 21:10:26.314,1.0050687,0.0,0.0,1.4503957,0.8746807,0.0,0.0,1.0807788,0.9157426,0.0,0.0,1.1905838,0.91392404,0.0,0.0,0.8616552,0.8202196,0.0,0.0,0.86802757,783.69965,790.54944,1039.9634,857.4359,906.1905,-0.11114501953125,0.0250244140625,1.0001220703125,4.957122802734375,-4.2767333984375,-0.814971923828125,1,2.0,1.0,1.0,2.0,100.00
2021-08-26 21:10:26.314,1.0050687,0.0,0.0,1.4503957,0.8746807,0.0,0.0,1.0807788,0.9157426,0.0,0.0,1.1905838,0.91392404,0.0,0.0,0.8616552,0.8202196,0.0,0.0,0.86802757,771.2088,788.5348,1050.0366,816.7399,604.7985,-0.11114501953125,0.0250244140625,1.0001220703125,4.957122802734375,-4.2767333984375,-0.814971923828125,1,2.0,1.0,1.0,2.0,100.00
2021-08-26 21:10:26.315,1.0050687,0.0,0.0,1.4503957,0.8746807,0.0,0.0,1.0807788,0.9157426,0.0,0.0,1.1905838,0.91392404,0.0,0.0,0.8616552,0.8202196,0.0,0.0,0.86802757,756.7033,770.40295,1050.0366,832.0513,624.1392,-0.11114501953125,0.0250244140625,1.0001220703125,4.957122802734375,-4.2767333984375,-0.814971923828125,1,2.0,1.0,1.0,2.0,100.00
2021-08-26 21:10:26.315,1.0050687,0.0,0.0,1.4503957,0.8746807,0.0,0.0,1.0807788,0.9157426,0.0,0.0,1.1905838,0.91392404,0.0,0.0,0.8616552,0.8202196,0.0,0.0,0.86802757,762.74725,776.04395,1046.4103,877.98535,874.35895,-0.11114501953125,0.0250244140625,1.0001220703125,4.957122802734375,-4.2767333984375,-0.814971923828125,1,2.0,1.0,1.0,2.0,100.00
2021-08-26 21:10:26.315,1.0050687,0.0,0.0,1.4503957,0.8746807,0.0,0.0,1.0807788,0.9157426,0.0,0.0,1.1905838,0.91392404,0.0,0.0,0.8616552,0.8202196,0.0,0.0,0.86802757,809.4872,789.34064,1048.4249,882.01465,858.24176,-0.11114501953125,0.0250244140625,1.0001220703125,4.957122802734375,-4.2767333984375,-0.814971923828125,1,2.0,1.0,1.0,2.0,100.00
2021-08-26 21:10:26.315,1.0050687,0.0,0.0,1.4503957,0.8746807,0.0,0.0,1.0807788,0.9157426,0.0,0.0,1.1905838,0.91392404,0.0,0.0,0.8616552,0.8202196,0.0,0.0,0.86802757,777.25275,792.96704,1055.2748,819.9634,795.38464,-0.11114501953125,0.0250244140625,1.0001220703125,4.957122802734375,-4.2767333984375,-0.814971923828125,1,2.0,1.0,1.0,2.0,100.00
2021-08-26 21:10:26.346,1.0050687,0.0,0.0,1.4503957,0.8746807,0.0,0.0,1.0807788,0.9157426,0.0,0.0,1.1905838,0.91392404,0.0,0.0,0.8616552,0.8202196,0.0,0.0,0.86802757,762.3443,792.5641,1046.8132,794.9817,728.49817,-0.1121826171875,0.023681640625,0.99920654296875,4.306640625,-4.41131591796875,-1.77947998046875,1,2.0,1.0,1.0,2.0,100.00
2021-08-26 21:10:26.347,1.0050687,0.0,0.0,1.4503957,0.8746807,0.0,0.0,1.0807788,0.9157426,0.0,0.0,1.1905838,0.91392404,0.0,0.0,0.8616552,0.8202196,0.0,0.0,0.86802757,791.75824,780.87915,1046.0073,850.989,632.1978,-0.1121826171875,0.023681640625,0.99920654296875,4.306640625,-4.41131591796875,-1.77947998046875,1,2.0,1.0,1.0,2.0,100.00
2021-08-26 21:10:26.347,1.0050687,0.0,0.0,1.4503957,0.8746807,0.0,0.0,1.0807788,0.9157426,0.0,0.0,1.1905838,0.91392404,0.0,0.0,0.8616552,0.8202196,0.0,0.0,0.86802757,809.4872,787.72894,1054.4689,901.75824,694.2491,-0.1121826171875,0.023681640625,0.99920654296875,4.306640625,-4.41131591796875,-1.77947998046875,1,2.0,1.0,1.0,2.0,100.00
2021-08-26 21:10:26.347,1.0050687,0.0,0.0,1.4503957,0.8746807,0.0,0.0,1.0807788,0.9157426,0.0,0.0,1.1905838,0.91392404,0.0,0.0,0.8616552,0.8202196,0.0,0.0,0.86802757,807.0696,803.8461,1050.0366,875.16486,867.50916,-0.1121826171875,0.023681640625,0.99920654296875,4.306640625,-4.41131591796875,-1.77947998046875,1,2.0,1.0,1.0,2.0,100.00
2021-08-26 21:10:26.348,1.0050687,0.0,0.0,1.4503957,0.8746807,0.0,0.0,1.0807788,0.9157426,0.0,0.0,1.1905838,0.91392404,0.0,0.0,0.8616552,0.8202196,0.0,0.0,0.86802757,789.34064,807.8755,1038.7546,851.39197,1043.1868,-0.1121826171875,0.023681640625,0.99920654296875,4.306640625,-4.41131591796875,-1.77947998046875,1,2.0,1.0,1.0,2.0,100.00
2021-08-26 21:10:26.348,1.0050687,0.0,0.0,1.4503957,0.8746807,0.0,0.0,1.0807788,0.9157426,0.0,0.0,1.1905838,0.91392404,0.0,0.0,0.8616552,0.8202196,0.0,0.0,0.86802757,788.5348,811.0989,1043.9927,835.2747,925.5311,-0.1121826171875,0.023681640625,0.99920654296875,4.306640625,-4.41131591796875,-1.77947998046875,1,2.0,1.0,1.0,2.0,100.00
2021-08-26 21:10:26.350,1.0050687,0.0,0.0,1.4503957,0.8746807,0.0,0.0,1.0807788,0.9157426,0.0,0.0,1.1905838,0.91392404,0.0,0.0,0.8616552,0.8202196,0.0,0.0,0.86802757,790.14655,806.6667,1045.2014,834.0659,701.0989,-0.1121826171875,0.023681640625,0.99920654296875,4.306640625,-4.41131591796875,-1.77947998046875,1,2.0,1.0,1.0,2.0,100.00
2021-08-26 21:10:26.350,1.0050687,0.0,0.0,1.4503957,0.8746807,0.0,0.0,1.0807788,0.9157426,0.0,0.0,1.1905838,0.91392404,0.0,0.0,0.8616552,0.8202196,0.0,0.0,0.86802757,812.71063,808.68134,1048.022,857.4359,700.696,-0.1121826171875,0.023681640625,0.99920654296875,4.306640625,-4.41131591796875,-1.77947998046875,1,2.0,1.0,1.0,2.0,100.00
2021-08-26 21:10:26.350,1.0050687,0.0,0.0,1.4503957,0.8746807,0.0,0.0,1.0807788,0.9157426,0.0,0.0,1.1905838,0.91392404,0.0,0.0,0.8616552,0.8202196,0.0,0.0,0.86802757,847.76556,827.2161,1050.4396,892.49084,1044.3956,-0.1121826171875,0.023681640625,0.99920654296875,4.306640625,-4.41131591796875,-1.77947998046875,1,2.0,1.0,1.0,2.0,100.00
2021-08-26 21:10:26.350,1.0050687,0.0,0.0,1.4503957,0.8746807,0.0,0.0,1.0807788,0.9157426,0.0,0.0,1.1905838,0.91392404,0.0,0.0,0.8616552,0.8202196,0.0,0.0,0.86802757,823.1868,848.5714,1035.9341,892.8938,1058.9011,-0.1121826171875,0.023681640625,0.99920654296875,4.306640625,-4.41131591796875,-1.77947998046875,1,2.0,1.0,1.0,2.0,100.00
2021-08-26 21:10:26.351,1.0050687,0.0,0.0,1.4503957,0.8746807,0.0,0.0,1.0807788,0.9157426,0.0,0.0,1.1905838,0.91392404,0.0,0.0,0.8616552,0.8202196,0.0,0.0,0.86802757,810.293,834.87177,1043.5897,869.12085,695.4579,-0.1121826171875,0.023681640625,0.99920654296875,4.306640625,-4.41131591796875,-1.77947998046875,1,2.0,1.0,1.0,2.0,100.00
2021-08-26 21:10:26.351,1.0050687,0.0,0.0,1.4503957,0.8746807,0.0,0.0,1.0807788,0.9157426,0.0,0.0,1.1905838,0.91392404,0.0,0.0,0.8616552,0.8202196,0.0,0.0,0.86802757,819.15753,814.7253,1047.619,853.8095,601.978,-0.1121826171875,0.023681640625,0.99920654296875,4.306640625,-4.41131591796875,-1.77947998046875,1,2.0,1.0,1.0,2.0,100.00
2021-08-26 21:10:26.412,1.0050687,0.0,0.0,1.4503957,0.8746807,0.0,0.0,1.0807788,0.9157426,0.0,0.0,1.1905838,0.91392404,0.0,0.0,0.8616552,0.8202196,0.0,0.0,0.86802757,801.02563,830.4396,1027.4725,814.3223,706.337,-0.1121826171875,0.023681640625,0.99920654296875,4.306640625,-4.41131591796875,-1.77947998046875,1,2.0,1.0,1.0,2.0,100.00
2021-08-26 21:10:26.412,1.0050687,0.0,0.0,1.4503957,0.8746807,0.0,0.0,1.0807788,0.9157426,0.0,0.0,1.1905838,0.91392404,0.0,0.0,0.8616552,0.8202196,0.0,0.0,0.86802757,770.40295,827.2161,1019.011,849.3773,848.5714,-0.1121826171875,0.023681640625,0.99920654296875,4.306640625,-4.41131591796875,-1.77947998046875,1,2.0,1.0,1.0,2.0,100.00
2021-08-26 21:10:26.413,1.0050687,0.0,0.0,1.4503957,0.8746807,0.0,0.0,1.0807788,0.9157426,0.0,0.0,1.1905838,0.91392404,0.0,0.0,0.8616552,0.8202196,0.0,0.0,0.86802757,784.5055,813.91943,1036.7399,915.05493,911.8315,-0.1121826171875,0.023681640625,0.99920654296875,4.306640625,-4.41131591796875,-1.77947998046875,1,2.0,1.0,1.0,2.0,100.00
