TimeStamp,Delta_TP9,Delta_AF7,Delta_AF8,Delta_TP10,Theta_TP9,Theta_AF7,Theta_AF8,Theta_TP10,Alpha_TP9,Alpha_AF7,Alpha_AF8,Alpha_TP10,Beta_TP9,Beta_AF7,Beta_AF8,Beta_TP10,Gamma_TP9,Gamma_AF7,Gamma_AF8,Gamma_TP10,RAW_TP9,RAW_AF7,RAW_AF8,RAW_TP10,AUX_RIGHT,Accelerometer_X,Accelerometer_Y,Accelerometer_Z,Gyro_X,Gyro_Y,Gyro_Z,HeadBandOn,HSI_TP9,HSI_AF7,HSI_AF8,HSI_TP10,Battery,Elements
2021-08-26 21:11:50.089,0.60893345,0.63082147,0.5751389,1.1172405,0.37550932,0.39993334,0.24997774,0.73723066,1.0024897,0.6938074,0.44383854,0.30884147,0.53238714,0.49048188,0.4860342,0.44696262,0.32732904,0.27682012,0.15873402,0.1570732,785.7143,788.93774,757.1062,707.5458,884.43225,-0.10968017578125,0.07086181640625,1.00091552734375,4.792633056640625,-3.5589599609375,-1.652374267578125,1,1.0,1.0,1.0,1.0,100.00
2021-08-26 21:11:50.089,0.60893345,0.63082147,0.5751389,1.1172405,0.37550932,0.39993334,0.24997774,0.73723066,1.0024897,0.6938074,0.44383854,0.30884147,0.53238714,0.49048188,0.4860342,0.44696262,0.32732904,0.27682012,0.15873402,0.1570732,781.28204,789.34064,749.0476,713.9927,783.2967,-0.10968017578125,0.07086181640625,1.00091552734375,4.792633056640625,-3.5589599609375,-1.652374267578125,1,1.0,1.0,1.0,1.0,100.00
2021-08-26 21:11:50.090,0.60893345,0.63082147,0.5751389,1.1172405,0.37550932,0.39993334,0.24997774,0.73723066,1.0024897,0.6938074,0.44383854,0.30884147,0.53238714,0.49048188,0.4860342,0.44696262,0.32732904,0.27682012,0.15873402,0.1570732,800.6227,784.10254,745.82416,711.978,690.6227,-0.10968017578125,0.07086181640625,1.00091552734375,4.792633056640625,-3.5589599609375,-1.652374267578125,1,1.0,1.0,1.0,1.0,100.00
2021-08-26 21:11:50.090,0.60893345,0.63082147,0.5751389,1.1172405,0.37550932,0.39993334,0.24997774,0.73723066,1.0024897,0.6938074,0.44383854,0.30884147,0.53238714,0.49048188,0.4860342,0.44696262,0.32732904,0.27682012,0.15873402,0.1570732,805.4579,768.7912,750.2564,699.89014,745.42126,-0.10968017578125,0.07086181640625,1.00091552734375,4.792633056640625,-3.5589599609375,-1.652374267578125,1,1.0,1.0,1.0,1.0,100.00
2021-08-26 21:11:50.090,0.60893345,0.63082147,0.5751389,1.1172405,0.37550932,0.39993334,0.24997774,0.73723066,1.0024897,0.6938074,0.44383854,0.30884147,0.53238714,0.49048188,0.4860342,0.44696262,0.32732904,0.27682012,0.15873402,0.1570732,805.8608,767.98535,757.9121,705.9341,837.6923,-0.10968017578125,0.07086181640625,1.00091552734375,4.792633056640625,-3.5589599609375,-1.652374267578125,1,1.0,1.0,1.0,1.0,100.00
2021-08-26 21:11:50.091,0.5983062,0.577597,0.55836564,1.1172405,0.35298645,0.36296314,0.24742791,0.73723066,1.0024897,0.6611689,0.44704625,0.30884147,0.5322237,0.49126792,0.50179785,0.44696262,0.32366967,0.24830171,0.18506157,0.1570732,801.02563,776.04395,760.32965,708.3516,908.60803,-0.10968017578125,0.07086181640625,1.00091552734375,4.792633056640625,-3.5589599609375,-1.652374267578125,1,1.0,1.0,1.0,1.0,100.00
2021-08-26 21:11:50.093,0.5983062,0.577597,0.55836564,1.1172405,0.35298645,0.36296314,0.24742791,0.73723066,1.0024897,0.6611689,0.44704625,0.30884147,0.5322237,0.49126792,0.50179785,0.44696262,0.32366967,0.24830171,0.18506157,0.1570732,781.685,778.86444,757.1062,699.89014,857.03296,-0.10968017578125,0.07086181640625,1.00091552734375,4.792633056640625,-3.5589599609375,-1.652374267578125,1,1.0,1.0,1.0,1.0,100.00
2021-08-26 21:11:50.094,0.5983062,0.577597,0.55836564,1.1172405,0.35298645,0.36296314,0.24742791,0.73723066,1.0024897,0.6611689,0.44704625,0.30884147,0.5322237,0.49126792,0.50179785,0.44696262,0.32366967,0.24830171,0.18506157,0.1570732,790.14655,782.8938,753.8828,706.337,883.22345,-0.10968017578125,0.07086181640625,1.00091552734375,4.792633056640625,-3.5589599609375,-1.652374267578125,1,1.0,1.0,1.0,1.0,100.00
2021-08-26 21:11:50.094,0.5983062,0.577597,0.55836564,1.1172405,0.35298645,0.36296314,0.24742791,0.73723066,1.0024897,0.6611689,0.44704625,0.30884147,0.5322237,0.49126792,0.50179785,0.44696262,0.32366967,0.24830171,0.18506157,0.1570732,801.02563,786.1172,755.89746,718.022,1004.10254,-0.10968017578125,0.07086181640625,1.00091552734375,4.792633056640625,-3.5589599609375,-1.652374267578125,1,1.0,1.0,1.0,1.0,100.00
2021-08-26 21:11:50.095,0.5983062,0.577597,0.55836564,1.1172405,0.35298645,0.36296314,0.24742791,0.73723066,1.0024897,0.6611689,0.44704625,0.30884147,0.5322237,0.49126792,0.50179785,0.44696262,0.32366967,0.24830171,0.18506157,0.1570732,793.7729,780.87915,757.50916,723.2601,816.7399,-0.10968017578125,0.07086181640625,1.00091552734375,4.792633056640625,-3.5589599609375,-1.652374267578125,1,1.0,1.0,1.0,1.0,100.00
2021-08-26 21:11:50.095,0.5983062,0.577597,0.55836564,1.1172405,0.35298645,0.36296314,0.24742791,0.73723066,1.0024897,0.6611689,0.44704625,0.30884147,0.5322237,0.49126792,0.50179785,0.44696262,0.32366967,0.24830171,0.18506157,0.1570732,794.9817,786.52014,758.71796,733.73627,778.0586,-0.10968017578125,0.07086181640625,1.00091552734375,4.792633056640625,-3.5589599609375,-1.652374267578125,1,1.0,1.0,1.0,1.0,100.00
2021-08-26 21:11:50.095,0.5983062,0.577597,0.55836564,1.1172405,0.35298645,0.36296314,0.24742791,0.73723066,1.0024897,0.6611689,0.44704625,0.30884147,0.5322237,0.49126792,0.50179785,0.44696262,0.32366967,0.24830171,0.18506157,0.1570732,794.9817,796.1905,759.5238,742.1978,860.2564,-0.10968017578125,0.07086181640625,1.00091552734375,4.792633056640625,-3.5589599609375,-1.652374267578125,1,1.0,1.0,1.0,1.0,100.00
2021-08-26 21:11:50.140,0.5983062,0.577597,0.55836564,1.1172405,0.35298645,0.36296314,0.24742791,0.73723066,1.0024897,0.6611689,0.44704625,0.30884147,0.5322237,0.49126792,0.50179785,0.44696262,0.32366967,0.24830171,0.18506157,0.1570732,798.20514,796.5934,754.68866,744.61536,728.9011,-0.109130859375,0.06683349609375,0.99786376953125,4.119720458984375,-3.94775390625,-1.80938720703125,1,1.0,1.0,1.0,1.0,100.00
2021-08-26 21:11:50.141,0.5983062,0.577597,0.55836564,1.1172405,0.35298645,0.36296314,0.24742791,0.73723066,1.0024897,0.6611689,0.44704625,0.30884147,0.5322237,0.49126792,0.50179785,0.44696262,0.32366967,0.24830171,0.18506157,0.1570732,805.4579,789.7436,757.1062,755.4945,701.0989,-0.109130859375,0.06683349609375,0.99786376953125,4.119720458984375,-3.94775390625,-1.80938720703125,1,1.0,1.0,1.0,1.0,100.00
2021-08-26 21:11:50.141,0.5983062,0.577597,0.55836564,1.1172405,0.35298645,0.36296314,0.24742791,0.73723066,1.0024897,0.6611689,0.44704625,0.30884147,0.5322237,0.49126792,0.50179785,0.44696262,0.32366967,0.24830171,0.18506157,0.1570732,802.6374,786.1172,765.9707,763.95605,800.2198,-0.109130859375,0.06683349609375,0.99786376953125,4.119720458984375,-3.94775390625,-1.80938720703125,1,1.0,1.0,1.0,1.0,100.00
2021-08-26 21:11:50.141,0.5983062,0.577597,0.55836564,1.1172405,0.35298645,0.36296314,0.24742791,0.73723066,1.0024897,0.6611689,0.44704625,0.30884147,0.5322237,0.49126792,0.50179785,0.44696262,0.32366967,0.24830171,0.18506157,0.1570732,801.02563,787.326,766.3736,772.8205,889.67035,-0.109130859375,0.06683349609375,0.99786376953125,4.119720458984375,-3.94775390625,-1.80938720703125,1,1.0,1.0,1.0,1.0,100.00
2021-08-26 21:11:50.142,0.5983062,0.577597,0.55836564,1.1172405,0.35298645,0.36296314,0.24742791,0.73723066,1.0024897,0.6611689,0.44704625,0.30884147,0.5322237,0.49126792,0.50179785,0.44696262,0.32366967,0.24830171,0.18506157,0.1570732,798.20514,789.7436,761.53845,779.2674,828.022,-0.109130859375,0.06683349609375,0.99786376953125,4.119720458984375,-3.94775390625,-1.80938720703125,1,1.0,1.0,1.0,1.0,100.00
2021-08-26 21:11:50.142,0.5983062,0.577597,0.55836564,1.1172405,0.35298645,0.36296314,0.24742791,0.73723066,1.0024897,0.6611689,0.44704625,0.30884147,0.5322237,0.49126792,0.50179785,0.44696262,0.32366967,0.24830171,0.18506157,0.1570732,793.7729,792.1612,757.9121,778.46155,724.87177,-0.109130859375,0.06683349609375,0.99786376953125,4.119720458984375,-3.94775390625,-1.80938720703125,1,1.0,1.0,1.0,1.0,100.00
2021-08-26 21:11:50.142,0.5983062,0.577597,0.55836564,1.1172405,0.35298645,0.36296314,0.24742791,0.73723066,1.0024897,0.6611689,0.44704625,0.30884147,0.5322237,0.49126792,0.50179785,0.44696262,0.32366967,0.24830171,0.18506157,0.1570732,797.3993,797.3993,748.24176,790.54944,770.40295,-0.109130859375,0.06683349609375,0.99786376953125,4.119720458984375,-3.94775390625,-1.80938720703125,1,1.0,1.0,1.0,1.0,100.00
2021-08-26 21:11:50.143,0.5983062,0.577597,0.55836564,1.1172405,0.35298645,0.36296314,0.24742791,0.73723066,1.0024897,0.6611689,0.44704625,0.30884147,0.5322237,0.49126792,0.50179785,0.44696262,0.32366967,0.24830171,0.18506157,0.1570732,795.38464,797.8022,745.82416,811.50183,971.06226,-0.109130859375,0.06683349609375,0.99786376953125,4.119720458984375,-3.94775390625,-1.80938720703125,1,1.0,1.0,1.0,1.0,100.00
2021-08-26 21:11:50.143,0.5983062,0.577597,0.55836564,1.1172405,0.35298645,0.36296314,0.24742791,0.73723066,1.0024897,0.6611689,0.44704625,0.30884147,0.5322237,0.49126792,0.50179785,0.44696262,0.32366967,0.24830171,0.18506157,0.1570732,786.1172,794.17584,751.4652,805.8608,897.326,-0.109130859375,0.06683349609375,0.99786376953125,4.119720458984375,-3.94775390625,-1.80938720703125,1,1.0,1.0,1.0,1.0,100.00
2021-08-26 21:11:50.143,0.5983062,0.577597,0.55836564,1.1172405,0.35298645,0.36296314,0.24742791,0.73723066,1.0024897,0.6611689,0.44704625,0.30884147,0.5322237,0.49126792,0.50179785,0.44696262,0.32366967,0.24830171,0.18506157,0.1570732,794.17584,799.81683,758.71796,801.8315,695.8608,-0.109130859375,0.06683349609375,0.99786376953125,4.119720458984375,-3.94775390625,-1.80938720703125,1,1.0,1.0,1.0,1.0,100.00
2021-08-26 21:11:50.144,0.5983062,0.577597,0.55836564,1.1172405,0.35298645,0.36296314,0.24742791,0.73723066,1.0024897,0.6611689,0.44704625,0.30884147,0.5322237,0.49126792,0.50179785,0.44696262,0.32366967,0.24830171,0.18506157,0.1570732,796.1905,798.60803,759.12085,818.3516,680.14655,-0.109130859375,0.06683349609375,0.99786376953125,4.119720458984375,-3.94775390625,-1.80938720703125,1,1.0,1.0,1.0,1.0,100.00
2021-08-26 21:11:50.144,0.5983062,0.577597,0.55836564,1.1172405,0.35298645,0.36296314,0.24742791,0.73723066,1.0024897,0.6611689,0.44704625,0.30884147,0.5322237,0.49126792,0.50179785,0.44696262,0.32366967,0.24830171,0.18506157,0.1570732,792.96704,788.5348,752.674,827.619,702.3077,-0.109130859375,0.06683349609375,0.99786376953125,4.119720458984375,-3.94775390625,-1.80938720703125,1,1.0,1.0,1.0,1.0,100.00
2021-08-26 21:11:50.144,0.5983062,0.577597,0.55836564,1.1172405,0.35298645,0.36296314,0.24742791,0.73723066,1.0024897,0.6611689,0.44704625,0.30884147,0.5322237,0.49126792,0.50179785,0.44696262,0.32366967,0.24830171,0.18506157,0.1570732,796.99634,782.49084,751.06226,832.0513,744.21246,-0.109130859375,0.06683349609375,0.99786376953125,4.119720458984375,-3.94775390625,-1.80938720703125,1,1.0,1.0,1.0,1.0,100.00
2021-08-26 21:11:50.144,0.5983062,0.577597,0.55836564,1.1172405,0.35298645,0.36296314,0.24742791,0.73723066,1.0024897,0.6611689,0.44704625,0.30884147,0.5322237,0.49126792,0.50179785,0.44696262,0.32366967,0.24830171,0.18506157,0.1570732,798.60803,772.4176,761.53845,847.76556,796.1905,-0.109130859375,0.06683349609375,0.99786376953125,4.119720458984375,-3.94775390625,-1.80938720703125,1,1.0,1.0,1.0,1.0,100.00
2021-08-26 21:11:50.145,0.5983062,0.577597,0.55836564,1.1172405,0.35298645,0.36296314,0.24742791,0.73723066,1.0024897,0.6611689,0.44704625,0.30884147,0.5322237,0.49126792,0.50179785,0.44696262,0.32366967,0.24830171,0.18506157,0.1570732,802.6374,761.53845,762.74725,847.76556,830.84247,-0.109130859375,0.06683349609375,0.99786376953125,4.119720458984375,-3.94775390625,-1.80938720703125,1,1.0,1.0,1.0,1.0,100.00
2021-08-26 21:11:50.145,0.5983062,0.577597,0.55836564,1.1172405,0.35298645,0.36296314,0.24742791,0.73723066,1.0024897,0.6611689,0.44704625,0.30884147,0.5322237,0.49126792,0.50179785,0.44696262,0.32366967,0.24830171,0.18506157,0.1570732,799.81683,763.5531,757.1062,835.6777,757.9121,-0.109130859375,0.06683349609375,0.99786376953125,4.119720458984375,-3.94775390625,-1.80938720703125,1,1.0,1.0,1.0,1.0,100.00
2021-08-26 21:11:50.145,0.5983062,0.577597,0.55836564,1.1172405,0.35298645,0.36296314,0.24742791,0.73723066,1.0024897,0.6611689,0.44704625,0.30884147,0.5322237,0.49126792,0.50179785,0.44696262,0.32366967,0.24830171,0.18506157,0.1570732,794.57874,770.40295,752.674,822.381,691.4286,-0.109130859375,0.06683349609375,0.99786376953125,4.119720458984375,-3.94775390625,-1.80938720703125,1,1.0,1.0,1.0,1.0,100.00
2021-08-26 21:11:50.146,0.5983062,0.577597,0.55836564,1.1172405,0.35298645,0.36296314,0.24742791,0.73723066,1.0024897,0.6611689,0.44704625,0.30884147,0.5322237,0.49126792,0.50179785,0.44696262,0.32366967,0.24830171,0.18506157,0.1570732,795.78754,774.83514,750.2564,816.7399,693.0403,-0.109130859375,0.06683349609375,0.99786376953125,4.119720458984375,-3.94775390625,-1.80938720703125,1,1.0,1.0,1.0,1.0,100.00
2021-08-26 21:11:50.146,0.5983062,0.577597,0.55836564,1.1172405,0.35298645,0.36296314,0.24742791,0.73723066,1.0024897,0.6611689,0.44704625,0.30884147,0.5322237,0.49126792,0.50179785,0.44696262,0.32366967,0.24830171,0.18506157,0.1570732,786.52014,780.87915,753.0769,833.2601,911.4286,-0.109130859375,0.06683349609375,0.99786376953125,4.119720458984375,-3.94775390625,-1.80938720703125,1,1.0,1.0,1.0,1.0,100.00
2021-08-26 21:11:50.146,0.47205698,0.55025804,0.53669477,1.1172405,0.2482468,0.3066549,0.2364385,0.73723066,0.9260109,0.6096924,0.4622684,0.30884147,0.5269727,0.48722464,0.50990933,0.44696262,0.32671162,0.21787632,0.20720382,0.1570732,792.1612,779.67035,757.1062,845.7509,1183.8096,-0.109130859375,0.06683349609375,0.99786376953125,4.119720458984375,-3.94775390625,-1.80938720703125,1,1.0,1.0,1.0,1.0,100.00
2021-08-26 21:11:50.149,0.47205698,0.55025804,0.53669477,1.1172405,0.2482468,0.3066549,0.2364385,0.73723066,0.9260109,0.6096924,0.4622684,0.30884147,0.5269727,0.48722464,0.50990933,0.44696262,0.32671162,0.21787632,0.20720382,0.1570732,790.9524,770.0,755.09155,824.7985,920.696,-0.109130859375,0.06683349609375,0.99786376953125,4.119720458984375,-3.94775390625,-1.80938720703125,1,1.0,1.0,1.0,1.0,100.00
2021-08-26 21:11:50.149,0.47205698,0.55025804,0.53669477,1.1172405,0.2482468,0.3066549,0.2364385,0.73723066,0.9260109,0.6096924,0.4622684,0.30884147,0.5269727,0.48722464,0.50990933,0.44696262,0.32671162,0.21787632,0.20720382,0.1570732,781.685,770.40295,748.6447,804.2491,726.08057,-0.109130859375,0.06683349609375,0.99786376953125,4.119720458984375,-3.94775390625,-1.80938720703125,1,1.0,1.0,1.0,1.0,100.00
2021-08-26 21:11:50.149,0.47205698,0.55025804,0.53669477,1.1172405,0.2482468,0.3066549,0.2364385,0.73723066,0.9260109,0.6096924,0.4622684,0.30884147,0.5269727,0.48722464,0.50990933,0.44696262,0.32671162,0.21787632,0.20720382,0.1570732,778.0586,772.8205,751.4652,793.36993,794.57874,-0.109130859375,0.06683349609375,0.99786376953125,4.119720458984375,-3.94775390625,-1.80938720703125,1,1.0,1.0,1.0,1.0,100.00
2021-08-26 21:11:50.150,0.47205698,0.55025804,0.53669477,1.1172405,0.2482468,0.3066549,0.2364385,0.73723066,0.9260109,0.6096924,0.4622684,0.30884147,0.5269727,0.48722464,0.50990933,0.44696262,0.32671162,0.21787632,0.20720382,0.1570732,772.8205,771.2088,756.7033,786.52014,834.87177,-0.109130859375,0.06683349609375,0.99786376953125,4.119720458984375,-3.94775390625,-1.80938720703125,1,1.0,1.0,1.0,1.0,100.00
2021-08-26 21:11:50.184,0.47205698,0.55025804,0.53669477,1.1172405,0.2482468,0.3066549,0.2364385,0.73723066,0.9260109,0.6096924,0.4622684,0.30884147,0.5269727,0.48722464,0.50990933,0.44696262,0.32671162,0.21787632,0.20720382,0.1570732,770.80585,778.0586,755.89746,765.16486,827.619,-0.1058349609375,0.06707763671875,0.99969482421875,4.68048095703125,-4.08233642578125,-1.592559814453125,1,1.0,1.0,1.0,1.0,100.00
2021-08-26 21:11:50.185,0.47205698,0.55025804,0.53669477,1.1172405,0.2482468,0.3066549,0.2364385,0.73723066,0.9260109,0.6096924,0.4622684,0.30884147,0.5269727,0.48722464,0.50990933,0.44696262,0.32671162,0.21787632,0.20720382,0.1570732,784.10254,781.685,755.09155,739.3773,798.20514,-0.1058349609375,0.06707763671875,0.99969482421875,4.68048095703125,-4.08233642578125,-1.592559814453125,1,1.0,1.0,1.0,1.0,100.00
2021-08-26 21:11:50.185,0.47205698,0.55025804,0.53669477,1.1172405,0.2482468,0.3066549,0.2364385,0.73723066,0.9260109,0.6096924,0.4622684,0.30884147,0.5269727,0.48722464,0.50990933,0.44696262,0.32671162,0.21787632,0.20720382,0.1570732,788.5348,778.46155,754.68866,738.97437,782.49084,-0.1058349609375,0.06707763671875,0.99969482421875,4.68048095703125,-4.08233642578125,-1.592559814453125,1,1.0,1.0,1.0,1.0,100.00
2021-08-26 21:11:50.186,0.47205698,0.55025804,0.53669477,1.1172405,0.2482468,0.3066549,0.2364385,0.73723066,0.9260109,0.6096924,0.4622684,0.30884147,0.5269727,0.48722464,0.50990933,0.44696262,0.32671162,0.21787632,0.20720382,0.1570732,780.4762,778.0586,762.3443,734.5421,724.4689,-0.1058349609375,0.06707763671875,0.99969482421875,4.68048095703125,-4.08233642578125,-1.592559814453125,1,1.0,1.0,1.0,1.0,100.00
2021-08-26 21:11:50.186,0.47205698,0.55025804,0.53669477,1.1172405,0.2482468,0.3066549,0.2364385,0.73723066,0.9260109,0.6096924,0.4622684,0.30884147,0.5269727,0.48722464,0.50990933,0.44696262,0.32671162,0.21787632,0.20720382,0.1570732,788.5348,784.10254,761.53845,729.304,757.1062,-0.1058349609375,0.06707763671875,0.99969482421875,4.68048095703125,-4.08233642578125,-1.592559814453125,1,1.0,1.0,1.0,1.0,100.00
2021-08-26 21:11:50.187,0.47205698,0.55025804,0.53669477,1.1172405,0.2482468,0.3066549,0.2364385,0.73723066,0.9260109,0.6096924,0.4622684,0.30884147,0.5269727,0.48722464,0.50990933,0.44696262,0.32671162,0.21787632,0.20720382,0.1570732,799.011,781.685,755.89746,727.6923,898.93774,-0.1058349609375,0.06707763671875,0.99969482421875,4.68048095703125,-4.08233642578125,-1.592559814453125,1,1.0,1.0,1.0,1.0,100.00
2021-08-26 21:11:50.188,0.47205698,0.55025804,0.53669477,1.1172405,0.2482468,0.3066549,0.2364385,0.73723066,0.9260109,0.6096924,0.4622684,0.30884147,0.5269727,0.48722464,0.50990933,0.44696262,0.32671162,0.21787632,0.20720382,0.1570732,797.8022,779.2674,753.0769,727.28937,1021.8315,-0.1058349609375,0.06707763671875,0.99969482421875,4.68048095703125,-4.08233642578125,-1.592559814453125,1,1.0,1.0,1.0,1.0,100.00
2021-08-26 21:11:50.188,0.47205698,0.55025804,0.53669477,1.1172405,0.2482468,0.3066549,0.2364385,0.73723066,0.9260109,0.6096924,0.4622684,0.30884147,0.5269727,0.48722464,0.50990933,0.44696262,0.32671162,0.21787632,0.20720382,0.1570732,800.6227,785.7143,757.9121,719.2308,918.68134,-0.1058349609375,0.06707763671875,0.99969482421875,4.68048095703125,-4.08233642578125,-1.592559814453125,1,1.0,1.0,1.0,1.0,100.00
2021-08-26 21:11:50.188,0.47205698,0.55025804,0.53669477,1.1172405,0.2482468,0.3066549,0.2364385,0.73723066,0.9260109,0.6096924,0.4622684,0.30884147,0.5269727,0.48722464,0.50990933,0.44696262,0.32671162,0.21787632,0.20720382,0.1570732,810.293,793.36993,768.3883,711.1722,728.0952,-0.1058349609375,0.06707763671875,0.99969482421875,4.68048095703125,-4.08233642578125,-1.592559814453125,1,1.0,1.0,1.0,1.0,100.00
2021-08-26 21:11:50.189,0.47205698,0.55025804,0.53669477,1.1172405,0.2482468,0.3066549,0.2364385,0.73723066,0.9260109,0.6096924,0.4622684,0.30884147,0.5269727,0.48722464,0.50990933,0.44696262,0.32671162,0.21787632,0.20720382,0.1570732,805.4579,792.5641,765.56775,709.5604,724.4689,-0.1058349609375,0.06707763671875,0.99969482421875,4.68048095703125,-4.08233642578125,-1.592559814453125,1,1.0,1.0,1.0,1.0,100.00
2021-08-26 21:11:50.189,0.47205698,0.55025804,0.53669477,1.1172405,0.2482468,0.3066549,0.2364385,0.73723066,0.9260109,0.6096924,0.4622684,0.30884147,0.5269727,0.48722464,0.50990933,0.44696262,0.32671162,0.21787632,0.20720382,0.1570732,795.38464,780.87915,755.89746,710.7692,919.4872,-0.1058349609375,0.06707763671875,0.99969482421875,4.68048095703125,-4.08233642578125,-1.592559814453125,1,1.0,1.0,1.0,1.0,100.00
2021-08-26 21:11:50.189,0.47205698,0.55025804,0.53669477,1.1172405,0.2482468,0.3066549,0.2364385,0.73723066,0.9260109,0.6096924,0.4622684,0.30884147,0.5269727,0.48722464,0.50990933,0.44696262,0.32671162,0.21787632,0.20720382,0.1570732,805.8608,785.7143,757.9121,718.022,835.6777,-0.1058349609375,0.06707763671875,0.99969482421875,4.68048095703125,-4.08233642578125,-1.592559814453125,1,1.0,1.0,1.0,1.0,100.00
2021-08-26 21:11:50.226,0.47205698,0.55025804,0.53669477,1.1172405,0.2482468,0.3066549,0.2364385,0.73723066,0.9260109,0.6096924,0.4622684,0.30884147,0.5269727,0.48722464,0.50990933,0.44696262,0.32671162,0.21787632,0.20720382,0.1570732,807.47253,792.96704,765.9707,731.31866,685.78754,-0.10986328125,0.0712890625,0.9976806640625,4.85992431640625,-3.289794921875,-0.70281982421875,1,1.0,1.0,1.0,1.0,100.00
2021-08-26 21:11:50.227,0.47205698,0.55025804,0.53669477,1.1172405,0.2482468,0.3066549,0.2364385,0.73723066,0.9260109,0.6096924,0.4622684,0.30884147,0.5269727,0.48722464,0.50990933,0.44696262,0.32671162,0.21787632,0.20720382,0.1570732,804.65204,794.57874,770.0,732.1245,679.34064,-0.10986328125,0.0712890625,0.9976806640625,4.85992431640625,-3.289794921875,-0.70281982421875,1,1.0,1.0,1.0,1.0,100.00
2021-08-26 21:11:50.227,0.47205698,0.55025804,0.53669477,1.1172405,0.2482468,0.3066549,0.2364385,0.73723066,0.9260109,0.6096924,0.4622684,0.30884147,0.5269727,0.48722464,0.50990933,0.44696262,0.32671162,0.21787632,0.20720382,0.1570732,810.293,798.60803,766.77655,736.55676,755.09155,-0.10986328125,0.0712890625,0.9976806640625,4.85992431640625,-3.289794921875,-0.70281982421875,1,1.0,1.0,1.0,1.0,100.00
2021-08-26 21:11:50.228,0.47205698,0.55025804,0.53669477,1.1172405,0.2482468,0.3066549,0.2364385,0.73723066,0.9260109,0.6096924,0.4622684,0.30884147,0.5269727,0.48722464,0.50990933,0.44696262,0.32671162,0.21787632,0.20720382,0.1570732,793.7729,796.1905,758.315,757.50916,796.99634,-0.10986328125,0.0712890625,0.9976806640625,4.85992431640625,-3.289794921875,-0.70281982421875,1,1.0,1.0,1.0,1.0,100.00
2021-08-26 21:11:50.228,0.47205698,0.55025804,0.53669477,1.1172405,0.2482468,0.3066549,0.2364385,0.73723066,0.9260109,0.6096924,0.4622684,0.30884147,0.5269727,0.48722464,0.50990933,0.44696262,0.32671162,0.21787632,0.20720382,0.1570732,793.36993,788.5348,762.3443,760.7326,770.80585,-0.10986328125,0.0712890625,0.9976806640625,4.85992431640625,-3.289794921875,-0.70281982421875,1,1.0,1.0,1.0,1.0,100.00
2021-08-26 21:11:50.228,0.47205698,0.55025804,0.53669477,1.1172405,0.2482468,0.3066549,0.2364385,0.73723066,0.9260109,0.6096924,0.4622684,0.30884147,0.5269727,0.48722464,0.50990933,0.44696262,0.32671162,0.21787632,0.20720382,0.1570732,807.8755,791.75824,763.1502,779.2674,852.6007,-0.10986328125,0.0712890625,0.9976806640625,4.85992431640625,-3.289794921875,-0.70281982421875,1,1.0,1.0,1.0,1.0,100.00
2021-08-26 21:11:50.228,0.47205698,0.55025804,0.53669477,1.1172405,0.2482468,0.3066549,0.2364385,0.73723066,0.9260109,0.6096924,0.4622684,0.30884147,0.5269727,0.48722464,0.50990933,0.44696262,0.32671162,0.21787632,0.20720382,0.1570732,811.50183,791.75824,763.1502,798.20514,841.31866,-0.10986328125,0.0712890625,0.9976806640625,4.85992431640625,-3.289794921875,-0.70281982421875,1,1.0,1.0,1.0,1.0,100.00
2021-08-26 21:11:50.229,0.47205698,0.55025804,0.53669477,1.1172405,0.2482468,0.3066549,0.2364385,0.73723066,0.9260109,0.6096924,0.4622684,0.30884147,0.5269727,0.48722464,0.50990933,0.44696262,0.32671162,0.21787632,0.20720382,0.1570732,797.3993,785.31134,768.3883,804.2491,716.4103,-0.10986328125,0.0712890625,0.9976806640625,4.85992431640625,-3.289794921875,-0.70281982421875,1,1.0,1.0,1.0,1.0,100.00
2021-08-26 21:11:50.229,0.47205698,0.55025804,0.53669477,1.1172405,0.2482468,0.3066549,0.2364385,0.73723066,0.9260109,0.6096924,0.4622684,0.30884147,0.5269727,0.48722464,0.50990933,0.44696262,0.32671162,0.21787632,0.20720382,0.1570732,790.14655,784.5055,763.95605,813.5165,733.73627,-0.10986328125,0.0712890625,0.9976806640625,4.85992431640625,-3.289794921875,-0.70281982421875,1,1.0,1.0,1.0,1.0,100.00
2021-08-26 21:11:50.229,0.38179004,0.55246294,0.5181374,1.1172405,0.15918419,0.25669545,0.21809804,0.73723066,0.79251385,0.46931133,0.46980155,0.30884147,0.5299838,0.4744918,0.5125056,0.44696262,0.3344862,0.1933228,0.22095068,0.1570732,793.36993,778.46155,757.9121,818.7546,844.94507,-0.10986328125,0.0712890625,0.9976806640625,4.85992431640625,-3.289794921875,-0.70281982421875,1,1.0,1.0,1.0,1.0,100.00
2021-08-26 21:11:50.232,0.38179004,0.55246294,0.5181374,1.1172405,0.15918419,0.25669545,0.21809804,0.73723066,0.79251385,0.46931133,0.46980155,0.30884147,0.5299838,0.4744918,0.5125056,0.44696262,0.3344862,0.1933228,0.22095068,0.1570732,787.72894,777.6557,759.5238,816.7399,826.0073,-0.10986328125,0.0712890625,0.9976806640625,4.85992431640625,-3.289794921875,-0.70281982421875,1,1.0,1.0,1.0,1.0,100.00
2021-08-26 21:11:50.232,0.38179004,0.55246294,0.5181374,1.1172405,0.15918419,0.25669545,0.21809804,0.73723066,0.79251385,0.46931133,0.46980155,0.30884147,0.5299838,0.4744918,0.5125056,0.44696262,0.3344862,0.1933228,0.22095068,0.1570732,792.96704,781.685,762.3443,811.50183,703.1135,-0.10986328125,0.0712890625,0.9976806640625,4.85992431640625,-3.289794921875,-0.70281982421875,1,1.0,1.0,1.0,1.0,100.00
2021-08-26 21:11:50.257,0.38179004,0.55246294,0.5181374,1.1172405,0.15918419,0.25669545,0.21809804,0.73723066,0.79251385,0.46931133,0.46980155,0.30884147,0.5299838,0.4744918,0.5125056,0.44696262,0.3344862,0.1933228,0.22095068,0.1570732,809.0842,790.54944,760.32965,818.3516,697.47253,-0.11798095703125,0.072265625,0.99847412109375,5.15899658203125,-3.6785888671875,-0.336456298828125,1,1.0,1.0,1.0,1.0,100.00
2021-08-26 21:11:50.258,0.38179004,0.55246294,0.5181374,1.1172405,0.15918419,0.25669545,0.21809804,0.73723066,0.79251385,0.46931133,0.46980155,0.30884147,0.5299838,0.4744918,0.5125056,0.44696262,0.3344862,0.1933228,0.22095068,0.1570732,811.0989,801.8315,766.3736,827.619,925.12823,-0.11798095703125,0.072265625,0.99847412109375,5.15899658203125,-3.6785888671875,-0.336456298828125,1,1.0,1.0,1.0,1.0,100.00
2021-08-26 21:11:50.258,0.38179004,0.55246294,0.5181374,1.1172405,0.15918419,0.25669545,0.21809804,0.73723066,0.79251385,0.46931133,0.46980155,0.30884147,0.5299838,0.4744918,0.5125056,0.44696262,0.3344862,0.1933228,0.22095068,0.1570732,793.36993,799.81683,768.7912,814.7253,941.2454,-0.11798095703125,0.072265625,0.99847412109375,5.15899658203125,-3.6785888671875,-0.336456298828125,1,1.0,1.0,1.0,1.0,100.00
2021-08-26 21:11:50.259,0.38179004,0.55246294,0.5181374,1.1172405,0.15918419,0.25669545,0.21809804,0.73723066,0.79251385,0.46931133,0.46980155,0.30884147,0.5299838,0.4744918,0.5125056,0.44696262,0.3344862,0.1933228,0.22095068,0.1570732,784.5055,790.14655,757.1062,776.4469,736.9597,-0.11798095703125,0.072265625,0.99847412109375,5.15899658203125,-3.6785888671875,-0.336456298828125,1,1.0,1.0,1.0,1.0,100.00
2021-08-26 21:11:50.259,0.38179004,0.55246294,0.5181374,1.1172405,0.15918419,0.25669545,0.21809804,0.73723066,0.79251385,0.46931133,0.46980155,0.30884147,0.5299838,0.4744918,0.5125056,0.44696262,0.3344862,0.1933228,0.22095068,0.1570732,794.9817,780.87915,755.4945,753.8828,731.7216,-0.11798095703125,0.072265625,0.99847412109375,5.15899658203125,-3.6785888671875,-0.336456298828125,1,1.0,1.0,1.0,1.0,100.00
2021-08-26 21:11:50.259,0.38179004,0.55246294,0.5181374,1.1172405,0.15918419,0.25669545,0.21809804,0.73723066,0.79251385,0.46931133,0.46980155,0.30884147,0.5299838,0.4744918,0.5125056,0.44696262,0.3344862,0.1933228,0.22095068,0.1570732,811.0989,781.28204,761.53845,756.7033,854.21246,-0.11798095703125,0.072265625,0.99847412109375,5.15899658203125,-3.6785888671875,-0.336456298828125,1,1.0,1.0,1.0,1.0,100.00
2021-08-26 21:11:50.259,0.38179004,0.55246294,0.5181374,1.1172405,0.15918419,0.25669545,0.21809804,0.73723066,0.79251385,0.46931133,0.46980155,0.30884147,0.5299838,0.4744918,0.5125056,0.44696262,0.3344862,0.1933228,0.22095068,0.1570732,813.91943,793.36993,763.95605,749.0476,915.8608,-0.11798095703125,0.072265625,0.99847412109375,5.15899658203125,-3.6785888671875,-0.336456298828125,1,1.0,1.0,1.0,1.0,100.00
2021-08-26 21:11:50.260,0.38179004,0.55246294,0.5181374,1.1172405,0.15918419,0.25669545,0.21809804,0.73723066,0.79251385,0.46931133,0.46980155,0.30884147,0.5299838,0.4744918,0.5125056,0.44696262,0.3344862,0.1933228,0.22095068,0.1570732,805.8608,799.011,765.56775,722.4542,834.4689,-0.11798095703125,0.072265625,0.99847412109375,5.15899658203125,-3.6785888671875,-0.336456298828125,1,1.0,1.0,1.0,1.0,100.00
2021-08-26 21:11:50.260,0.38179004,0.55246294,0.5181374,1.1172405,0.15918419,0.25669545,0.21809804,0.73723066,0.79251385,0.46931133,0.46980155,0.30884147,0.5299838,0.4744918,0.5125056,0.44696262,0.3344862,0.1933228,0.22095068,0.1570732,800.2198,794.57874,760.32965,705.12823,772.4176,-0.11798095703125,0.072265625,0.99847412109375,5.15899658203125,-3.6785888671875,-0.336456298828125,1,1.0,1.0,1.0,1.0,100.00
2021-08-26 21:11:50.260,0.38179004,0.55246294,0.5181374,1.1172405,0.15918419,0.25669545,0.21809804,0.73723066,0.79251385,0.46931133,0.46980155,0.30884147,0.5299838,0.4744918,0.5125056,0.44696262,0.3344862,0.1933228,0.22095068,0.1570732,795.78754,792.1612,759.12085,705.12823,924.7253,-0.11798095703125,0.072265625,0.99847412109375,5.15899658203125,-3.6785888671875,-0.336456298828125,1,1.0,1.0,1.0,1.0,100.00
2021-08-26 21:11:50.261,0.38179004,0.55246294,0.5181374,1.1172405,0.15918419,0.25669545,0.21809804,0.73723066,0.79251385,0.46931133,0.46980155,0.30884147,0.5299838,0.4744918,0.5125056,0.44696262,0.3344862,0.1933228,0.22095068,0.1570732,799.41394,792.1612,760.7326,704.7253,813.1135,-0.11798095703125,0.072265625,0.99847412109375,5.15899658203125,-3.6785888671875,-0.336456298828125,1,1.0,1.0,1.0,1.0,100.00
2021-08-26 21:11:50.261,0.38179004,0.55246294,0.5181374,1.1172405,0.15918419,0.25669545,0.21809804,0.73723066,0.79251385,0.46931133,0.46980155,0.30884147,0.5299838,0.4744918,0.5125056,0.44696262,0.3344862,0.1933228,0.22095068,0.1570732,804.2491,788.1319,757.50916,703.1135,726.8865,-0.11798095703125,0.072265625,0.99847412109375,5.15899658203125,-3.6785888671875,-0.336456298828125,1,1.0,1.0,1.0,1.0,100.00
2021-08-26 21:11:50.326,0.38179004,0.55246294,0.5181374,1.1172405,0.15918419,0.25669545,0.21809804,0.73723066,0.79251385,0.46931133,0.46980155,0.30884147,0.5299838,0.4744918,0.5125056,0.44696262,0.3344862,0.1933228,0.22095068,0.1570732,809.89014,786.52014,751.06226,698.2784,815.12823,-0.11566162109375,0.07147216796875,1.00054931640625,4.807586669921875,-3.880462646484375,-1.084136962890625,1,1.0,1.0,1.0,1.0,100.00
2021-08-26 21:11:50.326,0.38179004,0.55246294,0.5181374,1.1172405,0.15918419,0.25669545,0.21809804,0.73723066,0.79251385,0.46931133,0.46980155,0.30884147,0.5299838,0.4744918,0.5125056,0.44696262,0.3344862,0.1933228,0.22095068,0.1570732,810.293,784.10254,750.2564,710.3663,830.0366,-0.11566162109375,0.07147216796875,1.00054931640625,4.807586669921875,-3.880462646484375,-1.084136962890625,1,1.0,1.0,1.0,1.0,100.00
2021-08-26 21:11:50.327,0.38179004,0.55246294,0.5181374,1.1172405,0.15918419,0.25669545,0.21809804,0.73723066,0.79251385,0.46931133,0.46980155,0.30884147,0.5299838,0.4744918,0.5125056,0.44696262,0.3344862,0.1933228,0.22095068,0.1570732,804.2491,781.28204,760.32965,738.1685,737.3626,-0.11566162109375,0.07147216796875,1.00054931640625,4.807586669921875,-3.880462646484375,-1.084136962890625,1,1.0,1.0,1.0,1.0,100.00
2021-08-26 21:11:50.327,0.38179004,0.55246294,0.5181374,1.1172405,0.15918419,0.25669545,0.21809804,0.73723066,0.79251385,0.46931133,0.46980155,0.30884147,0.5299838,0.4744918,0.5125056,0.44696262,0.3344862,0.1933228,0.22095068,0.1570732,797.8022,782.8938,762.3443,748.6447,597.9487,-0.11566162109375,0.07147216796875,1.00054931640625,4.807586669921875,-3.880462646484375,-1.084136962890625,1,1.0,1.0,1.0,1.0,100.00
2021-08-26 21:11:50.327,0.38179004,0.55246294,0.5181374,1.1172405,0.15918419,0.25669545,0.21809804,0.73723066,0.79251385,0.46931133,0.46980155,0.30884147,0.5299838,0.4744918,0.5125056,0.44696262,0.3344862,0.1933228,0.22095068,0.1570732,801.4286,792.96704,764.35895,752.674,682.1612,-0.11566162109375,0.07147216796875,1.00054931640625,4.807586669921875,-3.880462646484375,-1.084136962890625,1,1.0,1.0,1.0,1.0,100.00
2021-08-26 21:11:50.327,0.38179004,0.55246294,0.5181374,1.1172405,0.15918419,0.25669545,0.21809804,0.73723066,0.79251385,0.46931133,0.46980155,0.30884147,0.5299838,0.4744918,0.5125056,0.44696262,0.3344862,0.1933228,0.22095068,0.1570732,800.6227,801.4286,761.9414,772.8205,836.8865,-0.11566162109375,0.07147216796875,1.00054931640625,4.807586669921875,-3.880462646484375,-1.084136962890625,1,1.0,1.0,1.0,1.0,100.00
2021-08-26 21:11:50.328,0.38179004,0.55246294,0.5181374,1.1172405,0.15918419,0.25669545,0.21809804,0.73723066,0.79251385,0.46931133,0.46980155,0.30884147,0.5299838,0.4744918,0.5125056,0.44696262,0.3344862,0.1933228,0.22095068,0.1570732,803.8461,793.36993,764.35895,794.17584,782.0879,-0.11566162109375,0.07147216796875,1.00054931640625,4.807586669921875,-3.880462646484375,-1.084136962890625,1,1.0,1.0,1.0,1.0,100.00
2021-08-26 21:11:50.328,0.38179004,0.55246294,0.5181374,1.1172405,0.15918419,0.25669545,0.21809804,0.73723066,0.79251385,0.46931133,0.46980155,0.30884147,0.5299838,0.4744918,0.5125056,0.44696262,0.3344862,0.1933228,0.22095068,0.1570732,809.0842,795.78754,775.2381,790.9524,684.17584,-0.11566162109375,0.07147216796875,1.00054931640625,4.807586669921875,-3.880462646484375,-1.084136962890625,1,1.0,1.0,1.0,1.0,100.00
2021-08-26 21:11:50.328,0.38179004,0.55246294,0.5181374,1.1172405,0.15918419,0.25669545,0.21809804,0.73723066,0.79251385,0.46931133,0.46980155,0.30884147,0.5299838,0.4744918,0.5125056,0.44696262,0.3344862,0.1933228,0.22095068,0.1570732,793.7729,803.0403,773.22345,782.8938,793.7729,-0.11566162109375,0.07147216796875,1.00054931640625,4.807586669921875,-3.880462646484375,-1.084136962890625,1,1.0,1.0,1.0,1.0,100.00
2021-08-26 21:11:50.329,0.38179004,0.55246294,0.5181374,1.1172405,0.15918419,0.25669545,0.21809804,0.73723066,0.79251385,0.46931133,0.46980155,0.30884147,0.5299838,0.4744918,0.5125056,0.44696262,0.3344862,0.1933228,0.22095068,0.1570732,788.93774,798.60803,768.3883,796.99634,1003.2967,-0.11566162109375,0.07147216796875,1.00054931640625,4.807586669921875,-3.880462646484375,-1.084136962890625,1,1.0,1.0,1.0,1.0,100.00
2021-08-26 21:11:50.329,0.38179004,0.55246294,0.5181374,1.1172405,0.15918419,0.25669545,0.21809804,0.73723066,0.79251385,0.46931133,0.46980155,0.30884147,0.5299838,0.4744918,0.5125056,0.44696262,0.3344862,0.1933228,0.22095068,0.1570732,785.31134,793.7729,769.19415,792.96704,884.0293,-0.11566162109375,0.07147216796875,1.00054931640625,4.807586669921875,-3.880462646484375,-1.084136962890625,1,1.0,1.0,1.0,1.0,100.00
2021-08-26 21:11:50.329,0.3402905,0.5780507,0.50774646,1.1172405,0.1225436,0.24076363,0.19404602,0.73723066,0.72639525,0.32404235,0.44981816,0.30884147,0.5373156,0.45335963,0.51208365,0.44696262,0.34965616,0.1793156,0.22570322,0.1570732,789.7436,791.3553,775.64105,783.2967,775.2381,-0.11566162109375,0.07147216796875,1.00054931640625,4.807586669921875,-3.880462646484375,-1.084136962890625,1,1.0,1.0,1.0,1.0,100.00
2021-08-26 21:11:50.358,0.3402905,0.5780507,0.50774646,1.1172405,0.1225436,0.24076363,0.19404602,0.73723066,0.72639525,0.32404235,0.44981816,0.30884147,0.5373156,0.45335963,0.51208365,0.44696262,0.34965616,0.1793156,0.22570322,0.1570732,789.7436,784.90845,772.4176,774.83514,736.9597,-0.11566162109375,0.07147216796875,1.00054931640625,4.807586669921875,-3.880462646484375,-1.084136962890625,1,1.0,1.0,1.0,1.0,100.00
2021-08-26 21:11:50.359,0.3402905,0.5780507,0.50774646,1.1172405,0.1225436,0.24076363,0.19404602,0.73723066,0.72639525,0.32404235,0.44981816,0.30884147,0.5373156,0.45335963,0.51208365,0.44696262,0.34965616,0.1793156,0.22570322,0.1570732,783.69965,784.90845,773.6264,754.2857,664.0293,-0.11566162109375,0.07147216796875,1.00054931640625,4.807586669921875,-3.880462646484375,-1.084136962890625,1,1.0,1.0,1.0,1.0,100.00
2021-08-26 21:11:50.359,0.3402905,0.5780507,0.50774646,1.1172405,0.1225436,0.24076363,0.19404602,0.73723066,0.72639525,0.32404235,0.44981816,0.30884147,0.5373156,0.45335963,0.51208365,0.44696262,0.34965616,0.1793156,0.22570322,0.1570732,787.72894,780.87915,778.46155,745.42126,690.6227,-0.11566162109375,0.07147216796875,1.00054931640625,4.807586669921875,-3.880462646484375,-1.084136962890625,1,1.0,1.0,1.0,1.0,100.00
2021-08-26 21:11:50.359,0.3402905,0.5780507,0.50774646,1.1172405,0.1225436,0.24076363,0.19404602,0.73723066,0.72639525,0.32404235,0.44981816,0.30884147,0.5373156,0.45335963,0.51208365,0.44696262,0.34965616,0.1793156,0.22570322,0.1570732,786.1172,784.10254,789.7436,747.03296,795.38464,-0.11566162109375,0.07147216796875,1.00054931640625,4.807586669921875,-3.880462646484375,-1.084136962890625,1,1.0,1.0,1.0,1.0,100.00
2021-08-26 21:11:50.360,0.3402905,0.5780507,0.50774646,1.1172405,0.1225436,0.24076363,0.19404602,0.73723066,0.72639525,0.32404235,0.44981816,0.30884147,0.5373156,0.45335963,0.51208365,0.44696262,0.34965616,0.1793156,0.22570322,0.1570732,784.90845,787.326,800.2198,746.63007,855.82416,-0.11566162109375,0.07147216796875,1.00054931640625,4.807586669921875,-3.880462646484375,-1.084136962890625,1,1.0,1.0,1.0,1.0,100.00
2021-08-26 21:11:50.360,0.3402905,0.5780507,0.50774646,1.1172405,0.1225436,0.24076363,0.19404602,0.73723066,0.72639525,0.32404235,0.44981816,0.30884147,0.5373156,0.45335963,0.51208365,0.44696262,0.34965616,0.1793156,0.22570322,0.1570732,778.0586,777.6557,790.54944,741.79486,789.7436,-0.11566162109375,0.07147216796875,1.00054931640625,4.807586669921875,-3.880462646484375,-1.084136962890625,1,1.0,1.0,1.0,1.0,100.00
2021-08-26 21:11:50.360,0.3402905,0.5780507,0.50774646,1.1172405,0.1225436,0.24076363,0.19404602,0.73723066,0.72639525,0.32404235,0.44981816,0.30884147,0.5373156,0.45335963,0.51208365,0.44696262,0.34965616,0.1793156,0.22570322,0.1570732,774.43225,779.67035,774.83514,744.61536,723.2601,-0.11566162109375,0.07147216796875,1.00054931640625,4.807586669921875,-3.880462646484375,-1.084136962890625,1,1.0,1.0,1.0,1.0,100.00
2021-08-26 21:11:50.360,0.3402905,0.5780507,0.50774646,1.1172405,0.1225436,0.24076363,0.19404602,0.73723066,0.72639525,0.32404235,0.44981816,0.30884147,0.5373156,0.45335963,0.51208365,0.44696262,0.34965616,0.1793156,0.22570322,0.1570732,786.52014,782.8938,775.64105,747.4359,749.45056,-0.11566162109375,0.07147216796875,1.00054931640625,4.807586669921875,-3.880462646484375,-1.084136962890625,1,1.0,1.0,1.0,1.0,100.00
2021-08-26 21:11:50.361,0.3402905,0.5780507,0.50774646,1.1172405,0.1225436,0.24076363,0.19404602,0.73723066,0.72639525,0.32404235,0.44981816,0.30884147,0.5373156,0.45335963,0.51208365,0.44696262,0.34965616,0.1793156,0.22570322,0.1570732,783.2967,780.4762,787.72894,759.5238,984.7619,-0.11566162109375,0.07147216796875,1.00054931640625,4.807586669921875,-3.880462646484375,-1.084136962890625,1,1.0,1.0,1.0,1.0,100.00
2021-08-26 21:11:50.361,0.3402905,0.5780507,0.50774646,1.1172405,0.1225436,0.24076363,0.19404602,0.73723066,0.72639525,0.32404235,0.44981816,0.30884147,0.5373156,0.45335963,0.51208365,0.44696262,0.34965616,0.1793156,0.22570322,0.1570732,776.8498,771.6117,790.9524,767.1795,965.0183,-0.11566162109375,0.07147216796875,1.00054931640625,4.807586669921875,-3.880462646484375,-1.084136962890625,1,1.0,1.0,1.0,1.0,100.00
2021-08-26 21:11:50.361,0.3402905,0.5780507,0.50774646,1.1172405,0.1225436,0.24076363,0.19404602,0.73723066,0.72639525,0.32404235,0.44981816,0.30884147,0.5373156,0.45335963,0.51208365,0.44696262,0.34965616,0.1793156,0.22570322,0.1570732,797.8022,774.43225,777.25275,766.77655,685.78754,-0.11566162109375,0.07147216796875,1.00054931640625,4.807586669921875,-3.880462646484375,-1.084136962890625,1,1.0,1.0,1.0,1.0,100.00
2021-08-26 21:11:50.362,0.3402905,0.5780507,0.50774646,1.1172405,0.1225436,0.24076363,0.19404602,0.73723066,0.72639525,0.32404235,0.44981816,0.30884147,0.5373156,0.45335963,0.51208365,0.44696262,0.34965616,0.1793156,0.22570322,0.1570732,794.9817,784.10254,767.98535,766.3736,646.7033,-0.11566162109375,0.07147216796875,1.00054931640625,4.807586669921875,-3.880462646484375,-1.084136962890625,1,1.0,1.0,1.0,1.0,100.00
2021-08-26 21:11:50.390,0.3402905,0.5780507,0.50774646,1.1172405,0.1225436,0.24076363,0.19404602,0.73723066,0.72639525,0.32404235,0.44981816,0.30884147,0.5373156,0.45335963,0.51208365,0.44696262,0.34965616,0.1793156,0.22570322,0.1570732,785.7143,773.6264,786.9231,759.5238,695.4579,-0.11181640625,0.07269287109375,1.00048828125,4.104766845703125,-4.314117431640625,-1.757049560546875,1,1.0,1.0,1.0,1.0,100.00
2021-08-26 21:11:50.390,0.3402905,0.5780507,0.50774646,1.1172405,0.1225436,0.24076363,0.19404602,0.73723066,0.72639525,0.32404235,0.44981816,0.30884147,0.5373156,0.45335963,0.51208365,0.44696262,0.34965616,0.1793156,0.22570322,0.1570732,795.78754,761.53845,795.38464,751.4652,770.0,-0.11181640625,0.07269287109375,1.00048828125,4.104766845703125,-4.314117431640625,-1.757049560546875,1,1.0,1.0,1.0,1.0,100.00
2021-08-26 21:11:50.391,0.3402905,0.5780507,0.50774646,1.1172405,0.1225436,0.24076363,0.19404602,0.73723066,0.72639525,0.32404235,0.44981816,0.30884147,0.5373156,0.45335963,0.51208365,0.44696262,0.34965616,0.1793156,0.22570322,0.1570732,790.14655,767.1795,789.7436,762.74725,793.7729,-0.11181640625,0.07269287109375,1.00048828125,4.104766845703125,-4.314117431640625,-1.757049560546875,1,1.0,1.0,1.0,1.0,100.00
2021-08-26 21:11:50.391,0.3402905,0.5780507,0.50774646,1.1172405,0.1225436,0.24076363,0.19404602,0.73723066,0.72639525,0.32404235,0.44981816,0.30884147,0.5373156,0.45335963,0.51208365,0.44696262,0.34965616,0.1793156,0.22570322,0.1570732,789.7436,784.10254,782.0879,779.2674,697.0696,-0.11181640625,0.07269287109375,1.00048828125,4.104766845703125,-4.314117431640625,-1.757049560546875,1,1.0,1.0,1.0,1.0,100.00
2021-08-26 21:11:50.391,0.3402905,0.5780507,0.50774646,1.1172405,0.1225436,0.24076363,0.19404602,0.73723066,0.72639525,0.32404235,0.44981816,0.30884147,0.5373156,0.45335963,0.51208365,0.44696262,0.34965616,0.1793156,0.22570322,0.1570732,798.20514,793.36993,783.69965,787.72894,640.2564,-0.11181640625,0.07269287109375,1.00048828125,4.104766845703125,-4.314117431640625,-1.757049560546875,1,1.0,1.0,1.0,1.0,100.00
2021-08-26 21:11:50.392,0.3402905,0.5780507,0.50774646,1.1172405,0.1225436,0.24076363,0.19404602,0.73723066,0.72639525,0.32404235,0.44981816,0.30884147,0.5373156,0.45335963,0.51208365,0.44696262,0.34965616,0.1793156,0.22570322,0.1570732,791.75824,789.7436,786.52014,793.7729,683.36993,-0.11181640625,0.07269287109375,1.00048828125,4.104766845703125,-4.314117431640625,-1.757049560546875,1,1.0,1.0,1.0,1.0,100.00
2021-08-26 21:11:50.392,0.3402905,0.5780507,0.50774646,1.1172405,0.1225436,0.24076363,0.19404602,0.73723066,0.72639525,0.32404235,0.44981816,0.30884147,0.5373156,0.45335963,0.51208365,0.44696262,0.34965616,0.1793156,0.22570322,0.1570732,792.1612,789.34064,776.4469,800.2198,779.67035,-0.11181640625,0.07269287109375,1.00048828125,4.104766845703125,-4.314117431640625,-1.757049560546875,1,1.0,1.0,1.0,1.0,100.00
2021-08-26 21:11:50.392,0.3402905,0.5780507,0.50774646,1.1172405,0.1225436,0.24076363,0.19404602,0.73723066,0.72639525,0.32404235,0.44981816,0.30884147,0.5373156,0.45335963,0.51208365,0.44696262,0.34965616,0.1793156,0.22570322,0.1570732,797.3993,792.96704,770.80585,814.3223,944.0659,-0.11181640625,0.07269287109375,1.00048828125,4.104766845703125,-4.314117431640625,-1.757049560546875,1,1.0,1.0,1.0,1.0,100.00
2021-08-26 21:11:50.393,0.3402905,0.5780507,0.50774646,1.1172405,0.1225436,0.24076363,0.19404602,0.73723066,0.72639525,0.32404235,0.44981816,0.30884147,0.5373156,0.45335963,0.51208365,0.44696262,0.34965616,0.1793156,0.22570322,0.1570732,801.8315,790.14655,775.2381,824.3956,1041.5751,-0.11181640625,0.07269287109375,1.00048828125,4.104766845703125,-4.314117431640625,-1.757049560546875,1,1.0,1.0,1.0,1.0,100.00
2021-08-26 21:11:50.393,0.3402905,0.5780507,0.50774646,1.1172405,0.1225436,0.24076363,0.19404602,0.73723066,0.72639525,0.32404235,0.44981816,0.30884147,0.5373156,0.45335963,0.51208365,0.44696262,0.34965616,0.1793156,0.22570322,0.1570732,799.41394,782.8938,771.6117,817.1429,750.65936,-0.11181640625,0.07269287109375,1.00048828125,4.104766845703125,-4.314117431640625,-1.757049560546875,1,1.0,1.0,1.0,1.0,100.00
2021-08-26 21:11:50.393,0.3402905,0.5780507,0.50774646,1.1172405,0.1225436,0.24076363,0.19404602,0.73723066,0.72639525,0.32404235,0.44981816,0.30884147,0.5373156,0.45335963,0.51208365,0.44696262,0.34965616,0.1793156,0.22570322,0.1570732,800.6227,781.28204,768.7912,815.9341,661.2088,-0.11181640625,0.07269287109375,1.00048828125,4.104766845703125,-4.314117431640625,-1.757049560546875,1,1.0,1.0,1.0,1.0,100.00
2021-08-26 21:11:50.394,0.3402905,0.5780507,0.50774646,1.1172405,0.1225436,0.24076363,0.19404602,0.73723066,0.72639525,0.32404235,0.44981816,0.30884147,0.5373156,0.45335963,0.51208365,0.44696262,0.34965616,0.1793156,0.22570322,0.1570732,808.2784,785.31134,774.0293,826.8132,842.52747,-0.11181640625,0.07269287109375,1.00048828125,4.104766845703125,-4.314117431640625,-1.757049560546875,1,1.0,1.0,1.0,1.0,100.00
2021-08-26 21:11:50.458,0.3402905,0.5780507,0.50774646,1.1172405,0.1225436,0.24076363,0.19404602,0.73723066,0.72639525,0.32404235,0.44981816,0.30884147,0.5373156,0.45335963,0.51208365,0.44696262,0.34965616,0.1793156,0.22570322,0.1570732,813.91943,780.07324,779.2674,818.3516,796.5934,-0.11273193359375,0.06658935546875,0.99755859375,4.164581298828125,-3.416900634765625,-2.026214599609375,1,1.0,1.0,1.0,1.0,100.00
2021-08-26 21:11:50.459,0.33022144,0.6189391,0.5103876,1.1172405,0.13445777,0.26234025,0.17472005,0.73723066,0.72525287,0.26806396,0.4267684,0.30884147,0.5452478,0.42898765,0.5102929,0.44696262,0.36886883,0.17810918,0.2227777,0.1570732,811.50183,771.2088,778.46155,815.9341,679.34064,-0.11273193359375,0.06658935546875,0.99755859375,4.164581298828125,-3.416900634765625,-2.026214599609375,1,1.0,1.0,1.0,1.0,100.00
2021-08-26 21:11:50.462,0.33022144,0.6189391,0.5103876,1.1172405,0.13445777,0.26234025,0.17472005,0.73723066,0.72525287,0.26806396,0.4267684,0.30884147,0.5452478,0.42898765,0.5102929,0.44696262,0.36886883,0.17810918,0.2227777,0.1570732,808.2784,780.4762,774.43225,825.2015,654.35895,-0.11273193359375,0.06658935546875,0.99755859375,4.164581298828125,-3.416900634765625,-2.026214599609375,1,1.0,1.0,1.0,1.0,100.00
2021-08-26 21:11:50.462,0.33022144,0.6189391,0.5103876,1.1172405,0.13445777,0.26234025,0.17472005,0.73723066,0.72525287,0.26806396,0.4267684,0.30884147,0.5452478,0.42898765,0.5102929,0.44696262,0.36886883,0.17810918,0.2227777,0.1570732,806.26373,792.1612,776.4469,820.7692,687.3993,-0.11273193359375,0.06658935546875,0.99755859375,4.164581298828125,-3.416900634765625,-2.026214599609375,1,1.0,1.0,1.0,1.0,100.00
2021-08-26 21:11:50.462,0.33022144,0.6189391,0.5103876,1.1172405,0.13445777,0.26234025,0.17472005,0.73723066,0.72525287,0.26806396,0.4267684,0.30884147,0.5452478,0.42898765,0.5102929,0.44696262,0.36886883,0.17810918,0.2227777,0.1570732,803.44324,786.52014,772.8205,827.2161,736.1539,-0.11273193359375,0.06658935546875,0.99755859375,4.164581298828125,-3.416900634765625,-2.026214599609375,1,1.0,1.0,1.0,1.0,100.00
2021-08-26 21:11:50.463,0.33022144,0.6189391,0.5103876,1.1172405,0.13445777,0.26234025,0.17472005,0.73723066,0.72525287,0.26806396,0.4267684,0.30884147,0.5452478,0.42898765,0.5102929,0.44696262,0.36886883,0.17810918,0.2227777,0.1570732,813.91943,788.5348,761.9414,834.87177,854.21246,-0.11273193359375,0.06658935546875,0.99755859375,4.164581298828125,-3.416900634765625,-2.026214599609375,1,1.0,1.0,1.0,1.0,100.00
2021-08-26 21:11:50.463,0.33022144,0.6189391,0.5103876,1.1172405,0.13445777,0.26234025,0.17472005,0.73723066,0.72525287,0.26806396,0.4267684,0.30884147,0.5452478,0.42898765,0.5102929,0.44696262,0.36886883,0.17810918,0.2227777,0.1570732,808.68134,793.7729,767.5824,842.52747,936.4103,-0.11273193359375,0.06658935546875,0.99755859375,4.164581298828125,-3.416900634765625,-2.026214599609375,1,1.0,1.0,1.0,1.0,100.00
2021-08-26 21:11:50.463,0.33022144,0.6189391,0.5103876,1.1172405,0.13445777,0.26234025,0.17472005,0.73723066,0.72525287,0.26806396,0.4267684,0.30884147,0.5452478,0.42898765,0.5102929,0.44696262,0.36886883,0.17810918,0.2227777,0.1570732,801.02563,790.14655,776.8498,850.18317,1002.49084,-0.11273193359375,0.06658935546875,0.99755859375,4.164581298828125,-3.416900634765625,-2.026214599609375,1,1.0,1.0,1.0,1.0,100.00
2021-08-26 21:11:50.464,0.33022144,0.6189391,0.5103876,1.1172405,0.13445777,0.26234025,0.17472005,0.73723066,0.72525287,0.26806396,0.4267684,0.30884147,0.5452478,0.42898765,0.5102929,0.44696262,0.36886883,0.17810918,0.2227777,0.1570732,801.8315,790.14655,766.3736,856.2271,882.01465,-0.11273193359375,0.06658935546875,0.99755859375,4.164581298828125,-3.416900634765625,-2.026214599609375,1,1.0,1.0,1.0,1.0,100.00
2021-08-26 21:11:50.464,0.33022144,0.6189391,0.5103876,1.1172405,0.13445777,0.26234025,0.17472005,0.73723066,0.72525287,0.26806396,0.4267684,0.30884147,0.5452478,0.42898765,0.5102929,0.44696262,0.36886883,0.17810918,0.2227777,0.1570732,799.011,785.7143,762.74725,865.09155,773.22345,-0.11273193359375,0.06658935546875,0.99755859375,4.164581298828125,-3.416900634765625,-2.026214599609375,1,1.0,1.0,1.0,1.0,100.00
2021-08-26 21:11:50.464,0.33022144,0.6189391,0.5103876,1.1172405,0.13445777,0.26234025,0.17472005,0.73723066,0.72525287,0.26806396,0.4267684,0.30884147,0.5452478,0.42898765,0.5102929,0.44696262,0.36886883,0.17810918,0.2227777,0.1570732,786.1172,778.86444,768.3883,857.03296,898.5348,-0.11273193359375,0.06658935546875,0.99755859375,4.164581298828125,-3.416900634765625,-2.026214599609375,1,1.0,1.0,1.0,1.0,100.00
2021-08-26 21:11:50.465,0.33022144,0.6189391,0.5103876,1.1172405,0.13445777,0.26234025,0.17472005,0.73723066,0.72525287,0.26806396,0.4267684,0.30884147,0.5452478,0.42898765,0.5102929,0.44696262,0.36886883,0.17810918,0.2227777,0.1570732,784.10254,774.43225,770.80585,846.9597,897.326,-0.11273193359375,0.06658935546875,0.99755859375,4.164581298828125,-3.416900634765625,-2.026214599609375,1,1.0,1.0,1.0,1.0,100.00
2021-08-26 21:11:50.526,0.33022144,0.6189391,0.5103876,1.1172405,0.13445777,0.26234025,0.17472005,0.73723066,0.72525287,0.26806396,0.4267684,0.30884147,0.5452478,0.42898765,0.5102929,0.44696262,0.36886883,0.17810918,0.2227777,0.1570732,797.3993,781.685,783.2967,849.7802,757.1062,-0.11279296875,0.067138671875,0.9970703125,4.598236083984375,-3.170166015625,-1.697235107421875,1,1.0,1.0,1.0,1.0,100.00
2021-08-26 21:11:50.527,0.33022144,0.6189391,0.5103876,1.1172405,0.13445777,0.26234025,0.17472005,0.73723066,0.72525287,0.26806396,0.4267684,0.30884147,0.5452478,0.42898765,0.5102929,0.44696262,0.36886883,0.17810918,0.2227777,0.1570732,799.81683,792.96704,783.2967,849.7802,706.7399,-0.11279296875,0.067138671875,0.9970703125,4.598236083984375,-3.170166015625,-1.697235107421875,1,1.0,1.0,1.0,1.0,100.00
2021-08-26 21:11:50.528,0.33022144,0.6189391,0.5103876,1.1172405,0.13445777,0.26234025,0.17472005,0.73723066,0.72525287,0.26806396,0.4267684,0.30884147,0.5452478,0.42898765,0.5102929,0.44696262,0.36886883,0.17810918,0.2227777,0.1570732,791.3553,790.54944,774.0293,854.21246,831.6484,-0.11279296875,0.067138671875,0.9970703125,4.598236083984375,-3.170166015625,-1.697235107421875,1,1.0,1.0,1.0,1.0,100.00
2021-08-26 21:11:50.528,0.33022144,0.6189391,0.5103876,1.1172405,0.13445777,0.26234025,0.17472005,0.73723066,0.72525287,0.26806396,0.4267684,0.30884147,0.5452478,0.42898765,0.5102929,0.44696262,0.36886883,0.17810918,0.2227777,0.1570732,793.36993,790.54944,769.59705,853.8095,904.9817,-0.11279296875,0.067138671875,0.9970703125,4.598236083984375,-3.170166015625,-1.697235107421875,1,1.0,1.0,1.0,1.0,100.00
2021-08-26 21:11:50.528,0.33022144,0.6189391,0.5103876,1.1172405,0.13445777,0.26234025,0.17472005,0.73723066,0.72525287,0.26806396,0.4267684,0.30884147,0.5452478,0.42898765,0.5102929,0.44696262,0.36886883,0.17810918,0.2227777,0.1570732,792.1612,796.5934,762.74725,843.73627,766.77655,-0.11279296875,0.067138671875,0.9970703125,4.598236083984375,-3.170166015625,-1.697235107421875,1,1.0,1.0,1.0,1.0,100.00
2021-08-26 21:11:50.528,0.33022144,0.6189391,0.5103876,1.1172405,0.13445777,0.26234025,0.17472005,0.73723066,0.72525287,0.26806396,0.4267684,0.30884147,0.5452478,0.42898765,0.5102929,0.44696262,0.36886883,0.17810918,0.2227777,0.1570732,794.17584,794.17584,765.16486,839.707,714.3956,-0.11279296875,0.067138671875,0.9970703125,4.598236083984375,-3.170166015625,-1.697235107421875,1,1.0,1.0,1.0,1.0,100.00
2021-08-26 21:11:50.529,0.33022144,0.6189391,0.5103876,1.1172405,0.13445777,0.26234025,0.17472005,0.73723066,0.72525287,0.26806396,0.4267684,0.30884147,0.5452478,0.42898765,0.5102929,0.44696262,0.36886883,0.17810918,0.2227777,0.1570732,784.90845,796.5934,767.5824,848.5714,868.315,-0.11279296875,0.067138671875,0.9970703125,4.598236083984375,-3.170166015625,-1.697235107421875,1,1.0,1.0,1.0,1.0,100.00
2021-08-26 21:11:50.529,0.33022144,0.6189391,0.5103876,1.1172405,0.13445777,0.26234025,0.17472005,0.73723066,0.72525287,0.26806396,0.4267684,0.30884147,0.5452478,0.42898765,0.5102929,0.44696262,0.36886883,0.17810918,0.2227777,0.1570732,792.5641,793.7729,755.4945,849.7802,1021.02563,-0.11279296875,0.067138671875,0.9970703125,4.598236083984375,-3.170166015625,-1.697235107421875,1,1.0,1.0,1.0,1.0,100.00
2021-08-26 21:11:50.529,0.33022144,0.6189391,0.5103876,1.1172405,0.13445777,0.26234025,0.17472005,0.73723066,0.72525287,0.26806396,0.4267684,0.30884147,0.5452478,0.42898765,0.5102929,0.44696262,0.36886883,0.17810918,0.2227777,0.1570732,802.23444,786.1172,751.4652,839.707,832.0513,-0.11279296875,0.067138671875,0.9970703125,4.598236083984375,-3.170166015625,-1.697235107421875,1,1.0,1.0,1.0,1.0,100.00
2021-08-26 21:11:50.530,0.33022144,0.6189391,0.5103876,1.1172405,0.13445777,0.26234025,0.17472005,0.73723066,0.72525287,0.26806396,0.4267684,0.30884147,0.5452478,0.42898765,0.5102929,0.44696262,0.36886883,0.17810918,0.2227777,0.1570732,784.90845,792.96704,760.32965,839.304,695.4579,-0.11279296875,0.067138671875,0.9970703125,4.598236083984375,-3.170166015625,-1.697235107421875,1,1.0,1.0,1.0,1.0,100.00
2021-08-26 21:11:50.530,0.33022144,0.6189391,0.5103876,1.1172405,0.13445777,0.26234025,0.17472005,0.73723066,0.72525287,0.26806396,0.4267684,0.30884147,0.5452478,0.42898765,0.5102929,0.44696262,0.36886883,0.17810918,0.2227777,0.1570732,778.86444,797.8022,771.2088,842.9304,727.28937,-0.11279296875,0.067138671875,0.9970703125,4.598236083984375,-3.170166015625,-1.697235107421875,1,1.0,1.0,1.0,1.0,100.00
2021-08-26 21:11:50.530,0.33022144,0.6189391,0.5103876,1.1172405,0.13445777,0.26234025,0.17472005,0.73723066,0.72525287,0.26806396,0.4267684,0.30884147,0.5452478,0.42898765,0.5102929,0.44696262,0.36886883,0.17810918,0.2227777,0.1570732,785.31134,790.54944,770.80585,851.39197,694.65204,-0.11279296875,0.067138671875,0.9970703125,4.598236083984375,-3.170166015625,-1.697235107421875,1,1.0,1.0,1.0,1.0,100.00
2021-08-26 21:11:50.559,0.33022144,0.6189391,0.5103876,1.1172405,0.13445777,0.26234025,0.17472005,0.73723066,0.72525287,0.26806396,0.4267684,0.30884147,0.5452478,0.42898765,0.5102929,0.44696262,0.36886883,0.17810918,0.2227777,0.1570732,799.011,785.31134,768.7912,854.61536,716.8132,-0.11358642578125,0.072265625,0.99871826171875,4.299163818359375,-2.9608154296875,-1.03179931640625,1,1.0,1.0,1.0,1.0,100.00
2021-08-26 21:11:50.559,0.33022144,0.6189391,0.5103876,1.1172405,0.13445777,0.26234025,0.17472005,0.73723066,0.72525287,0.26806396,0.4267684,0.30884147,0.5452478,0.42898765,0.5102929,0.44696262,0.36886883,0.17810918,0.2227777,0.1570732,809.89014,792.1612,774.43225,841.31866,831.6484,-0.11358642578125,0.072265625,0.99871826171875,4.299163818359375,-2.9608154296875,-1.03179931640625,1,1.0,1.0,1.0,1.0,100.00
2021-08-26 21:11:50.560,0.33022144,0.6189391,0.5103876,1.1172405,0.13445777,0.26234025,0.17472005,0.73723066,0.72525287,0.26806396,0.4267684,0.30884147,0.5452478,0.42898765,0.5102929,0.44696262,0.36886883,0.17810918,0.2227777,0.1570732,797.8022,794.57874,771.2088,833.663,922.3077,-0.11358642578125,0.072265625,0.99871826171875,4.299163818359375,-2.9608154296875,-1.03179931640625,1,1.0,1.0,1.0,1.0,100.00
2021-08-26 21:11:50.560,0.32891273,0.65787745,0.523801,1.1172405,0.17369643,0.30206245,0.17139605,0.73723066,0.75434846,0.25292662,0.4414976,0.30884147,0.54902667,0.40920058,0.5073844,0.44696262,0.38575324,0.1893344,0.21456432,0.1570732,787.326,794.57874,758.315,836.4835,800.6227,-0.11358642578125,0.072265625,0.99871826171875,4.299163818359375,-2.9608154296875,-1.03179931640625,1,1.0,1.0,1.0,1.0,100.00
2021-08-26 21:11:50.563,0.32891273,0.65787745,0.523801,1.1172405,0.17369643,0.30206245,0.17139605,0.73723066,0.75434846,0.25292662,0.4414976,0.30884147,0.54902667,0.40920058,0.5073844,0.44696262,0.38575324,0.1893344,0.21456432,0.1570732,787.326,794.9817,757.1062,830.4396,666.4469,-0.11358642578125,0.072265625,0.99871826171875,4.299163818359375,-2.9608154296875,-1.03179931640625,1,1.0,1.0,1.0,1.0,100.00
2021-08-26 21:11:50.563,0.32891273,0.65787745,0.523801,1.1172405,0.17369643,0.30206245,0.17139605,0.73723066,0.75434846,0.25292662,0.4414976,0.30884147,0.54902667,0.40920058,0.5073844,0.44696262,0.38575324,0.1893344,0.21456432,0.1570732,790.14655,791.3553,761.13556,826.0073,902.1612,-0.11358642578125,0.072265625,0.99871826171875,4.299163818359375,-2.9608154296875,-1.03179931640625,1,1.0,1.0,1.0,1.0,100.00
2021-08-26 21:11:50.563,0.32891273,0.65787745,0.523801,1.1172405,0.17369643,0.30206245,0.17139605,0.73723066,0.75434846,0.25292662,0.4414976,0.30884147,0.54902667,0.40920058,0.5073844,0.44696262,0.38575324,0.1893344,0.21456432,0.1570732,796.99634,794.57874,759.12085,825.2015,1151.978,-0.11358642578125,0.072265625,0.99871826171875,4.299163818359375,-2.9608154296875,-1.03179931640625,1,1.0,1.0,1.0,1.0,100.00
2021-08-26 21:11:50.563,0.32891273,0.65787745,0.523801,1.1172405,0.17369643,0.30206245,0.17139605,0.73723066,0.75434846,0.25292662,0.4414976,0.30884147,0.54902667,0.40920058,0.5073844,0.44696262,0.38575324,0.1893344,0.21456432,0.1570732,795.38464,796.1905,761.9414,823.5897,941.2454,-0.11358642578125,0.072265625,0.99871826171875,4.299163818359375,-2.9608154296875,-1.03179931640625,1,1.0,1.0,1.0,1.0,100.00
2021-08-26 21:11:50.564,0.32891273,0.65787745,0.523801,1.1172405,0.17369643,0.30206245,0.17139605,0.73723066,0.75434846,0.25292662,0.4414976,0.30884147,0.54902667,0.40920058,0.5073844,0.44696262,0.38575324,0.1893344,0.21456432,0.1570732,794.57874,788.93774,762.3443,817.5458,688.20514,-0.11358642578125,0.072265625,0.99871826171875,4.299163818359375,-2.9608154296875,-1.03179931640625,1,1.0,1.0,1.0,1.0,100.00
2021-08-26 21:11:50.564,0.32891273,0.65787745,0.523801,1.1172405,0.17369643,0.30206245,0.17139605,0.73723066,0.75434846,0.25292662,0.4414976,0.30884147,0.54902667,0.40920058,0.5073844,0.44696262,0.38575324,0.1893344,0.21456432,0.1570732,797.3993,786.1172,764.7619,817.5458,668.86444,-0.11358642578125,0.072265625,0.99871826171875,4.299163818359375,-2.9608154296875,-1.03179931640625,1,1.0,1.0,1.0,1.0,100.00
2021-08-26 21:11:50.564,0.32891273,0.65787745,0.523801,1.1172405,0.17369643,0.30206245,0.17139605,0.73723066,0.75434846,0.25292662,0.4414976,0.30884147,0.54902667,0.40920058,0.5073844,0.44696262,0.38575324,0.1893344,0.21456432,0.1570732,792.96704,788.93774,775.2381,829.2308,740.989,-0.11358642578125,0.072265625,0.99871826171875,4.299163818359375,-2.9608154296875,-1.03179931640625,1,1.0,1.0,1.0,1.0,100.00
2021-08-26 21:11:50.565,0.32891273,0.65787745,0.523801,1.1172405,0.17369643,0.30206245,0.17139605,0.73723066,0.75434846,0.25292662,0.4414976,0.30884147,0.54902667,0.40920058,0.5073844,0.44696262,0.38575324,0.1893344,0.21456432,0.1570732,790.9524,790.14655,771.2088,842.1245,786.9231,-0.11358642578125,0.072265625,0.99871826171875,4.299163818359375,-2.9608154296875,-1.03179931640625,1,1.0,1.0,1.0,1.0,100.00
2021-08-26 21:11:50.592,0.32891273,0.65787745,0.523801,1.1172405,0.17369643,0.30206245,0.17139605,0.73723066,0.75434846,0.25292662,0.4414976,0.30884147,0.54902667,0.40920058,0.5073844,0.44696262,0.38575324,0.1893344,0.21456432,0.1570732,795.38464,788.93774,759.5238,852.6007,796.1905,-0.11358642578125,0.072265625,0.99871826171875,4.299163818359375,-2.9608154296875,-1.03179931640625,1,1.0,1.0,1.0,1.0,100.00
2021-08-26 21:11:50.593,0.32891273,0.65787745,0.523801,1.1172405,0.17369643,0.30206245,0.17139605,0.73723066,0.75434846,0.25292662,0.4414976,0.30884147,0.54902667,0.40920058,0.5073844,0.44696262,0.38575324,0.1893344,0.21456432,0.1570732,809.0842,785.7143,769.59705,861.06226,750.2564,-0.11358642578125,0.072265625,0.99871826171875,4.299163818359375,-2.9608154296875,-1.03179931640625,1,1.0,1.0,1.0,1.0,100.00
2021-08-26 21:11:50.593,0.32891273,0.65787745,0.523801,1.1172405,0.17369643,0.30206245,0.17139605,0.73723066,0.75434846,0.25292662,0.4414976,0.30884147,0.54902667,0.40920058,0.5073844,0.44696262,0.38575324,0.1893344,0.21456432,0.1570732,802.6374,786.52014,774.83514,858.24176,670.87915,-0.11358642578125,0.072265625,0.99871826171875,4.299163818359375,-2.9608154296875,-1.03179931640625,1,1.0,1.0,1.0,1.0,100.00
2021-08-26 21:11:50.594,0.32891273,0.65787745,0.523801,1.1172405,0.17369643,0.30206245,0.17139605,0.73723066,0.75434846,0.25292662,0.4414976,0.30884147,0.54902667,0.40920058,0.5073844,0.44696262,0.38575324,0.1893344,0.21456432,0.1570732,785.7143,796.99634,762.74725,865.4945,697.0696,-0.11358642578125,0.072265625,0.99871826171875,4.299163818359375,-2.9608154296875,-1.03179931640625,1,1.0,1.0,1.0,1.0,100.00
2021-08-26 21:11:50.594,0.32891273,0.65787745,0.523801,1.1172405,0.17369643,0.30206245,0.17139605,0.73723066,0.75434846,0.25292662,0.4414976,0.30884147,0.54902667,0.40920058,0.5073844,0.44696262,0.38575324,0.1893344,0.21456432,0.1570732,797.3993,803.8461,756.30035,875.56775,765.9707,-0.11358642578125,0.072265625,0.99871826171875,4.299163818359375,-2.9608154296875,-1.03179931640625,1,1.0,1.0,1.0,1.0,100.00
2021-08-26 21:11:50.594,0.32891273,0.65787745,0.523801,1.1172405,0.17369643,0.30206245,0.17139605,0.73723066,0.75434846,0.25292662,0.4414976,0.30884147,0.54902667,0.40920058,0.5073844,0.44696262,0.38575324,0.1893344,0.21456432,0.1570732,796.5934,795.38464,761.9414,883.22345,944.4689,-0.11358642578125,0.072265625,0.99871826171875,4.299163818359375,-2.9608154296875,-1.03179931640625,1,1.0,1.0,1.0,1.0,100.00
2021-08-26 21:11:50.595,0.32891273,0.65787745,0.523801,1.1172405,0.17369643,0.30206245,0.17139605,0.73723066,0.75434846,0.25292662,0.4414976,0.30884147,0.54902667,0.40920058,0.5073844,0.44696262,0.38575324,0.1893344,0.21456432,0.1570732,794.9817,790.14655,770.40295,885.2381,1189.8535,-0.11358642578125,0.072265625,0.99871826171875,4.299163818359375,-2.9608154296875,-1.03179931640625,1,1.0,1.0,1.0,1.0,100.00
2021-08-26 21:11:50.595,0.32891273,0.65787745,0.523801,1.1172405,0.17369643,0.30206245,0.17139605,0.73723066,0.75434846,0.25292662,0.4414976,0.30884147,0.54902667,0.40920058,0.5073844,0.44696262,0.38575324,0.1893344,0.21456432,0.1570732,797.8022,788.93774,771.6117,876.77655,831.2454,-0.11358642578125,0.072265625,0.99871826171875,4.299163818359375,-2.9608154296875,-1.03179931640625,1,1.0,1.0,1.0,1.0,100.00
2021-08-26 21:11:50.595,0.32891273,0.65787745,0.523801,1.1172405,0.17369643,0.30206245,0.17139605,0.73723066,0.75434846,0.25292662,0.4414976,0.30884147,0.54902667,0.40920058,0.5073844,0.44696262,0.38575324,0.1893344,0.21456432,0.1570732,805.4579,784.90845,769.59705,882.01465,631.79486,-0.11358642578125,0.072265625,0.99871826171875,4.299163818359375,-2.9608154296875,-1.03179931640625,1,1.0,1.0,1.0,1.0,100.00
2021-08-26 21:11:50.596,0.32891273,0.65787745,0.523801,1.1172405,0.17369643,0.30206245,0.17139605,0.73723066,0.75434846,0.25292662,0.4414976,0.30884147,0.54902667,0.40920058,0.5073844,0.44696262,0.38575324,0.1893344,0.21456432,0.1570732,808.68134,788.1319,773.6264,889.2674,828.4249,-0.11358642578125,0.072265625,0.99871826171875,4.299163818359375,-2.9608154296875,-1.03179931640625,1,1.0,1.0,1.0,1.0,100.00
2021-08-26 21:11:50.596,0.32891273,0.65787745,0.523801,1.1172405,0.17369643,0.30206245,0.17139605,0.73723066,0.75434846,0.25292662,0.4414976,0.30884147,0.54902667,0.40920058,0.5073844,0.44696262,0.38575324,0.1893344,0.21456432,0.1570732,788.1319,784.5055,776.4469,879.59705,850.58606,-0.11358642578125,0.072265625,0.99871826171875,4.299163818359375,-2.9608154296875,-1.03179931640625,1,1.0,1.0,1.0,1.0,100.00
2021-08-26 21:11:50.596,0.32891273,0.65787745,0.523801,1.1172405,0.17369643,0.30206245,0.17139605,0.73723066,0.75434846,0.25292662,0.4414976,0.30884147,0.54902667,0.40920058,0.5073844,0.44696262,0.38575324,0.1893344,0.21456432,0.1570732,794.9817,781.685,770.0,875.16486,753.8828,-0.11358642578125,0.072265625,0.99871826171875,4.299163818359375,-2.9608154296875,-1.03179931640625,1,1.0,1.0,1.0,1.0,100.00
2021-08-26 21:11:50.659,0.32891273,0.65787745,0.523801,1.1172405,0.17369643,0.30206245,0.17139605,0.73723066,0.75434846,0.25292662,0.4414976,0.30884147,0.54902667,0.40920058,0.5073844,0.44696262,0.38575324,0.1893344,0.21456432,0.1570732,814.7253,788.93774,763.1502,877.98535,711.5751,-0.12237548828125,0.0692138671875,1.00323486328125,5.00946044921875,-3.775787353515625,-0.500946044921875,1,1.0,1.0,1.0,1.0,100.00
2021-08-26 21:11:50.660,0.32891273,0.65787745,0.523801,1.1172405,0.17369643,0.30206245,0.17139605,0.73723066,0.75434846,0.25292662,0.4414976,0.30884147,0.54902667,0.40920058,0.5073844,0.44696262,0.38575324,0.1893344,0.21456432,0.1570732,795.78754,785.31134,763.5531,879.19415,756.30035,-0.12237548828125,0.0692138671875,1.00323486328125,5.00946044921875,-3.775787353515625,-0.500946044921875,1,1.0,1.0,1.0,1.0,100.00
2021-08-26 21:11:50.661,0.32891273,0.65787745,0.523801,1.1172405,0.17369643,0.30206245,0.17139605,0.73723066,0.75434846,0.25292662,0.4414976,0.30884147,0.54902667,0.40920058,0.5073844,0.44696262,0.38575324,0.1893344,0.21456432,0.1570732,790.14655,783.2967,767.5824,871.13556,772.8205,-0.12237548828125,0.0692138671875,1.00323486328125,5.00946044921875,-3.775787353515625,-0.500946044921875,1,1.0,1.0,1.0,1.0,100.00
2021-08-26 21:11:50.661,0.32891273,0.65787745,0.523801,1.1172405,0.17369643,0.30206245,0.17139605,0.73723066,0.75434846,0.25292662,0.4414976,0.30884147,0.54902667,0.40920058,0.5073844,0.44696262,0.38575324,0.1893344,0.21456432,0.1570732,800.6227,784.10254,768.3883,872.3443,769.19415,-0.12237548828125,0.0692138671875,1.00323486328125,5.00946044921875,-3.775787353515625,-0.500946044921875,1,1.0,1.0,1.0,1.0,100.00
2021-08-26 21:11:50.662,0.32891273,0.65787745,0.523801,1.1172405,0.17369643,0.30206245,0.17139605,0.73723066,0.75434846,0.25292662,0.4414976,0.30884147,0.54902667,0.40920058,0.5073844,0.44696262,0.38575324,0.1893344,0.21456432,0.1570732,796.99634,778.0586,768.7912,877.1795,783.69965,-0.12237548828125,0.0692138671875,1.00323486328125,5.00946044921875,-3.775787353515625,-0.500946044921875,1,1.0,1.0,1.0,1.0,100.00
2021-08-26 21:11:50.662,0.34038225,0.6807065,0.5658633,1.1172405,0.22881968,0.3446353,0.19574742,0.73723066,0.7838118,0.248769,0.46426377,0.30884147,0.5424188,0.40027142,0.50325453,0.44696262,0.39623103,0.20504174,0.20397998,0.1570732,786.52014,776.04395,776.4469,874.7619,869.92676,-0.12237548828125,0.0692138671875,1.00323486328125,5.00946044921875,-3.775787353515625,-0.500946044921875,1,1.0,1.0,1.0,1.0,100.00
2021-08-26 21:11:50.665,0.34038225,0.6807065,0.5658633,1.1172405,0.22881968,0.3446353,0.19574742,0.73723066,0.7838118,0.248769,0.46426377,0.30884147,0.5424188,0.40027142,0.50325453,0.44696262,0.39623103,0.20504174,0.20397998,0.1570732,790.54944,772.01465,779.2674,868.315,879.19415,-0.12237548828125,0.0692138671875,1.00323486328125,5.00946044921875,-3.775787353515625,-0.500946044921875,1,1.0,1.0,1.0,1.0,100.00
2021-08-26 21:11:50.665,0.34038225,0.6807065,0.5658633,1.1172405,0.22881968,0.3446353,0.19574742,0.73723066,0.7838118,0.248769,0.46426377,0.30884147,0.5424188,0.40027142,0.50325453,0.44696262,0.39623103,0.20504174,0.20397998,0.1570732,801.8315,770.0,768.3883,866.30035,912.23444,-0.12237548828125,0.0692138671875,1.00323486328125,5.00946044921875,-3.775787353515625,-0.500946044921875,1,1.0,1.0,1.0,1.0,100.00
2021-08-26 21:11:50.666,0.34038225,0.6807065,0.5658633,1.1172405,0.22881968,0.3446353,0.19574742,0.73723066,0.7838118,0.248769,0.46426377,0.30884147,0.5424188,0.40027142,0.50325453,0.44696262,0.39623103,0.20504174,0.20397998,0.1570732,805.05493,776.8498,765.16486,868.315,926.7399,-0.12237548828125,0.0692138671875,1.00323486328125,5.00946044921875,-3.775787353515625,-0.500946044921875,1,1.0,1.0,1.0,1.0,100.00
2021-08-26 21:11:50.666,0.34038225,0.6807065,0.5658633,1.1172405,0.22881968,0.3446353,0.19574742,0.73723066,0.7838118,0.248769,0.46426377,0.30884147,0.5424188,0.40027142,0.50325453,0.44696262,0.39623103,0.20504174,0.20397998,0.1570732,807.0696,784.90845,770.40295,874.7619,1043.5897,-0.12237548828125,0.0692138671875,1.00323486328125,5.00946044921875,-3.775787353515625,-0.500946044921875,1,1.0,1.0,1.0,1.0,100.00
2021-08-26 21:11:50.666,0.34038225,0.6807065,0.5658633,1.1172405,0.22881968,0.3446353,0.19574742,0.73723066,0.7838118,0.248769,0.46426377,0.30884147,0.5424188,0.40027142,0.50325453,0.44696262,0.39623103,0.20504174,0.20397998,0.1570732,793.7729,789.34064,766.3736,873.95605,938.022,-0.12237548828125,0.0692138671875,1.00323486328125,5.00946044921875,-3.775787353515625,-0.500946044921875,1,1.0,1.0,1.0,1.0,100.00
2021-08-26 21:11:50.666,0.34038225,0.6807065,0.5658633,1.1172405,0.22881968,0.3446353,0.19574742,0.73723066,0.7838118,0.248769,0.46426377,0.30884147,0.5424188,0.40027142,0.50325453,0.44696262,0.39623103,0.20504174,0.20397998,0.1570732,790.9524,789.34064,755.4945,868.315,693.0403,-0.12237548828125,0.0692138671875,1.00323486328125,5.00946044921875,-3.775787353515625,-0.500946044921875,1,1.0,1.0,1.0,1.0,100.00
2021-08-26 21:11:50.692,0.34038225,0.6807065,0.5658633,1.1172405,0.22881968,0.3446353,0.19574742,0.73723066,0.7838118,0.248769,0.46426377,0.30884147,0.5424188,0.40027142,0.50325453,0.44696262,0.39623103,0.20504174,0.20397998,0.1570732,798.20514,780.87915,756.7033,865.09155,705.5311,-0.11468505859375,0.0703125,0.99053955078125,4.74029541015625,-3.4991455078125,-2.1234130859375,1,1.0,1.0,1.0,1.0,100.00
2021-08-26 21:11:50.693,0.34038225,0.6807065,0.5658633,1.1172405,0.22881968,0.3446353,0.19574742,0.73723066,0.7838118,0.248769,0.46426377,0.30884147,0.5424188,0.40027142,0.50325453,0.44696262,0.39623103,0.20504174,0.20397998,0.1570732,795.78754,780.07324,762.74725,863.8828,808.2784,-0.11468505859375,0.0703125,0.99053955078125,4.74029541015625,-3.4991455078125,-2.1234130859375,1,1.0,1.0,1.0,1.0,100.00
2021-08-26 21:11:50.693,0.34038225,0.6807065,0.5658633,1.1172405,0.22881968,0.3446353,0.19574742,0.73723066,0.7838118,0.248769,0.46426377,0.30884147,0.5424188,0.40027142,0.50325453,0.44696262,0.39623103,0.20504174,0.20397998,0.1570732,787.72894,783.69965,761.53845,863.8828,768.3883,-0.11468505859375,0.0703125,0.99053955078125,4.74029541015625,-3.4991455078125,-2.1234130859375,1,1.0,1.0,1.0,1.0,100.00
2021-08-26 21:11:50.694,0.34038225,0.6807065,0.5658633,1.1172405,0.22881968,0.3446353,0.19574742,0.73723066,0.7838118,0.248769,0.46426377,0.30884147,0.5424188,0.40027142,0.50325453,0.44696262,0.39623103,0.20504174,0.20397998,0.1570732,779.67035,780.87915,757.9121,866.7033,684.9817,-0.11468505859375,0.0703125,0.99053955078125,4.74029541015625,-3.4991455078125,-2.1234130859375,1,1.0,1.0,1.0,1.0,100.00
2021-08-26 21:11:50.694,0.34038225,0.6807065,0.5658633,1.1172405,0.22881968,0.3446353,0.19574742,0.73723066,0.7838118,0.248769,0.46426377,0.30884147,0.5424188,0.40027142,0.50325453,0.44696262,0.39623103,0.20504174,0.20397998,0.1570732,798.20514,786.52014,752.27106,869.92676,708.7546,-0.11468505859375,0.0703125,0.99053955078125,4.74029541015625,-3.4991455078125,-2.1234130859375,1,1.0,1.0,1.0,1.0,100.00
2021-08-26 21:11:50.695,0.34038225,0.6807065,0.5658633,1.1172405,0.22881968,0.3446353,0.19574742,0.73723066,0.7838118,0.248769,0.46426377,0.30884147,0.5424188,0.40027142,0.50325453,0.44696262,0.39623103,0.20504174,0.20397998,0.1570732,810.293,795.38464,757.50916,872.74725,871.9414,-0.11468505859375,0.0703125,0.99053955078125,4.74029541015625,-3.4991455078125,-2.1234130859375,1,1.0,1.0,1.0,1.0,100.00
2021-08-26 21:11:50.695,0.34038225,0.6807065,0.5658633,1.1172405,0.22881968,0.3446353,0.19574742,0.73723066,0.7838118,0.248769,0.46426377,0.30884147,0.5424188,0.40027142,0.50325453,0.44696262,0.39623103,0.20504174,0.20397998,0.1570732,811.0989,788.93774,764.7619,879.19415,994.0293,-0.11468505859375,0.0703125,0.99053955078125,4.74029541015625,-3.4991455078125,-2.1234130859375,1,1.0,1.0,1.0,1.0,100.00
2021-08-26 21:11:50.695,0.34038225,0.6807065,0.5658633,1.1172405,0.22881968,0.3446353,0.19574742,0.73723066,0.7838118,0.248769,0.46426377,0.30884147,0.5424188,0.40027142,0.50325453,0.44696262,0.39623103,0.20504174,0.20397998,0.1570732,806.6667,787.72894,761.9414,880.0,846.1539,-0.11468505859375,0.0703125,0.99053955078125,4.74029541015625,-3.4991455078125,-2.1234130859375,1,1.0,1.0,1.0,1.0,100.00
2021-08-26 21:11:50.695,0.34038225,0.6807065,0.5658633,1.1172405,0.22881968,0.3446353,0.19574742,0.73723066,0.7838118,0.248769,0.46426377,0.30884147,0.5424188,0.40027142,0.50325453,0.44696262,0.39623103,0.20504174,0.20397998,0.1570732,802.23444,797.8022,763.5531,865.89746,825.6044,-0.11468505859375,0.0703125,0.99053955078125,4.74029541015625,-3.4991455078125,-2.1234130859375,1,1.0,1.0,1.0,1.0,100.00
2021-08-26 21:11:50.696,0.34038225,0.6807065,0.5658633,1.1172405,0.22881968,0.3446353,0.19574742,0.73723066,0.7838118,0.248769,0.46426377,0.30884147,0.5424188,0.40027142,0.50325453,0.44696262,0.39623103,0.20504174,0.20397998,0.1570732,801.4286,790.54944,763.95605,855.82416,921.0989,-0.11468505859375,0.0703125,0.99053955078125,4.74029541015625,-3.4991455078125,-2.1234130859375,1,1.0,1.0,1.0,1.0,100.00
2021-08-26 21:11:50.696,0.34038225,0.6807065,0.5658633,1.1172405,0.22881968,0.3446353,0.19574742,0.73723066,0.7838118,0.248769,0.46426377,0.30884147,0.5424188,0.40027142,0.50325453,0.44696262,0.39623103,0.20504174,0.20397998,0.1570732,797.8022,779.67035,765.56775,859.85345,783.2967,-0.11468505859375,0.0703125,0.99053955078125,4.74029541015625,-3.4991455078125,-2.1234130859375,1,1.0,1.0,1.0,1.0,100.00
2021-08-26 21:11:50.696,0.34038225,0.6807065,0.5658633,1.1172405,0.22881968,0.3446353,0.19574742,0.73723066,0.7838118,0.248769,0.46426377,0.30884147,0.5424188,0.40027142,0.50325453,0.44696262,0.39623103,0.20504174,0.20397998,0.1570732,797.3993,778.86444,769.59705,864.2857,779.67035,-0.11468505859375,0.0703125,0.99053955078125,4.74029541015625,-3.4991455078125,-2.1234130859375,1,1.0,1.0,1.0,1.0,100.00
2021-08-26 21:11:50.726,0.34038225,0.6807065,0.5658633,1.1172405,0.22881968,0.3446353,0.19574742,0.73723066,0.7838118,0.248769,0.46426377,0.30884147,0.5424188,0.40027142,0.50325453,0.44696262,0.39623103,0.20504174,0.20397998,0.1570732,799.011,782.49084,760.32965,859.0476,876.3736,-0.118408203125,0.073974609375,1.0025634765625,4.725341796875,-2.99072265625,-1.577606201171875,1,1.0,1.0,1.0,1.0,100.00
2021-08-26 21:11:50.726,0.34038225,0.6807065,0.5658633,1.1172405,0.22881968,0.3446353,0.19574742,0.73723066,0.7838118,0.248769,0.46426377,0.30884147,0.5424188,0.40027142,0.50325453,0.44696262,0.39623103,0.20504174,0.20397998,0.1570732,811.0989,784.10254,751.4652,857.03296,775.2381,-0.118408203125,0.073974609375,1.0025634765625,4.725341796875,-2.99072265625,-1.577606201171875,1,1.0,1.0,1.0,1.0,100.00
2021-08-26 21:11:50.727,0.34038225,0.6807065,0.5658633,1.1172405,0.22881968,0.3446353,0.19574742,0.73723066,0.7838118,0.248769,0.46426377,0.30884147,0.5424188,0.40027142,0.50325453,0.44696262,0.39623103,0.20504174,0.20397998,0.1570732,812.71063,784.90845,755.89746,863.8828,651.9414,-0.118408203125,0.073974609375,1.0025634765625,4.725341796875,-2.99072265625,-1.577606201171875,1,1.0,1.0,1.0,1.0,100.00
2021-08-26 21:11:50.727,0.34038225,0.6807065,0.5658633,1.1172405,0.22881968,0.3446353,0.19574742,0.73723066,0.7838118,0.248769,0.46426377,0.30884147,0.5424188,0.40027142,0.50325453,0.44696262,0.39623103,0.20504174,0.20397998,0.1570732,810.293,787.326,761.9414,869.12085,707.1429,-0.118408203125,0.073974609375,1.0025634765625,4.725341796875,-2.99072265625,-1.577606201171875,1,1.0,1.0,1.0,1.0,100.00
2021-08-26 21:11:50.727,0.34038225,0.6807065,0.5658633,1.1172405,0.22881968,0.3446353,0.19574742,0.73723066,0.7838118,0.248769,0.46426377,0.30884147,0.5424188,0.40027142,0.50325453,0.44696262,0.39623103,0.20504174,0.20397998,0.1570732,797.3993,787.72894,765.16486,871.9414,800.2198,-0.118408203125,0.073974609375,1.0025634765625,4.725341796875,-2.99072265625,-1.577606201171875,1,1.0,1.0,1.0,1.0,100.00
2021-08-26 21:11:50.728,0.34038225,0.6807065,0.5658633,1.1172405,0.22881968,0.3446353,0.19574742,0.73723066,0.7838118,0.248769,0.46426377,0.30884147,0.5424188,0.40027142,0.50325453,0.44696262,0.39623103,0.20504174,0.20397998,0.1570732,793.7729,789.34064,771.2088,869.5238,851.79486,-0.118408203125,0.073974609375,1.0025634765625,4.725341796875,-2.99072265625,-1.577606201171875,1,1.0,1.0,1.0,1.0,100.00
2021-08-26 21:11:50.728,0.34038225,0.6807065,0.5658633,1.1172405,0.22881968,0.3446353,0.19574742,0.73723066,0.7838118,0.248769,0.46426377,0.30884147,0.5424188,0.40027142,0.50325453,0.44696262,0.39623103,0.20504174,0.20397998,0.1570732,810.293,788.5348,775.64105,865.4945,776.4469,-0.118408203125,0.073974609375,1.0025634765625,4.725341796875,-2.99072265625,-1.577606201171875,1,1.0,1.0,1.0,1.0,100.00
2021-08-26 21:11:50.728,0.3539203,0.69278854,0.57227236,1.1172405,0.29831496,0.3757487,0.20428328,0.73723066,0.7940135,0.2483553,0.46426377,0.30884147,0.52383846,0.40248704,0.5127131,0.44696262,0.40162343,0.21074013,0.21208654,0.1570732,806.26373,790.54944,767.98535,865.89746,680.54944,-0.118408203125,0.073974609375,1.0025634765625,4.725341796875,-2.99072265625,-1.577606201171875,1,1.0,1.0,1.0,1.0,100.00
2021-08-26 21:11:50.731,0.3539203,0.69278854,0.57227236,1.1172405,0.29831496,0.3757487,0.20428328,0.73723066,0.7940135,0.2483553,0.46426377,0.30884147,0.52383846,0.40248704,0.5127131,0.44696262,0.40162343,0.21074013,0.21208654,0.1570732,799.011,790.54944,758.71796,866.30035,885.2381,-0.118408203125,0.073974609375,1.0025634765625,4.725341796875,-2.99072265625,-1.577606201171875,1,1.0,1.0,1.0,1.0,100.00
2021-08-26 21:11:50.731,0.3539203,0.69278854,0.57227236,1.1172405,0.29831496,0.3757487,0.20428328,0.73723066,0.7940135,0.2483553,0.46426377,0.30884147,0.52383846,0.40248704,0.5127131,0.44696262,0.40162343,0.21074013,0.21208654,0.1570732,793.36993,783.69965,763.95605,869.5238,940.0366,-0.118408203125,0.073974609375,1.0025634765625,4.725341796875,-2.99072265625,-1.577606201171875,1,1.0,1.0,1.0,1.0,100.00
2021-08-26 21:11:50.731,0.3539203,0.69278854,0.57227236,1.1172405,0.29831496,0.3757487,0.20428328,0.73723066,0.7940135,0.2483553,0.46426377,0.30884147,0.52383846,0.40248704,0.5127131,0.44696262,0.40162343,0.21074013,0.21208654,0.1570732,794.57874,780.87915,769.59705,867.50916,799.011,-0.118408203125,0.073974609375,1.0025634765625,4.725341796875,-2.99072265625,-1.577606201171875,1,1.0,1.0,1.0,1.0,100.00
2021-08-26 21:11:50.732,0.3539203,0.69278854,0.57227236,1.1172405,0.29831496,0.3757487,0.20428328,0.73723066,0.7940135,0.2483553,0.46426377,0.30884147,0.52383846,0.40248704,0.5127131,0.44696262,0.40162343,0.21074013,0.21208654,0.1570732,797.3993,782.49084,768.7912,862.674,730.9158,-0.118408203125,0.073974609375,1.0025634765625,4.725341796875,-2.99072265625,-1.577606201171875,1,1.0,1.0,1.0,1.0,100.00
2021-08-26 21:11:50.786,0.3539203,0.69278854,0.57227236,1.1172405,0.29831496,0.3757487,0.20428328,0.73723066,0.7940135,0.2483553,0.46426377,0.30884147,0.52383846,0.40248704,0.5127131,0.44696262,0.40162343,0.21074013,0.21208654,0.1570732,799.81683,782.0879,767.1795,871.13556,745.42126,-0.12347412109375,0.0706787109375,0.99627685546875,4.32159423828125,-3.043060302734375,-1.233673095703125,1,1.0,1.0,1.0,1.0,100.00
2021-08-26 21:11:50.786,0.3539203,0.69278854,0.57227236,1.1172405,0.29831496,0.3757487,0.20428328,0.73723066,0.7940135,0.2483553,0.46426377,0.30884147,0.52383846,0.40248704,0.5127131,0.44696262,0.40162343,0.21074013,0.21208654,0.1570732,802.6374,786.1172,757.50916,873.1502,811.50183,-0.12347412109375,0.0706787109375,0.99627685546875,4.32159423828125,-3.043060302734375,-1.233673095703125,1,1.0,1.0,1.0,1.0,100.00
2021-08-26 21:11:50.787,0.3539203,0.69278854,0.57227236,1.1172405,0.29831496,0.3757487,0.20428328,0.73723066,0.7940135,0.2483553,0.46426377,0.30884147,0.52383846,0.40248704,0.5127131,0.44696262,0.40162343,0.21074013,0.21208654,0.1570732,807.0696,788.1319,758.71796,869.5238,805.05493,-0.12347412109375,0.0706787109375,0.99627685546875,4.32159423828125,-3.043060302734375,-1.233673095703125,1,1.0,1.0,1.0,1.0,100.00
2021-08-26 21:11:50.788,0.3539203,0.69278854,0.57227236,1.1172405,0.29831496,0.3757487,0.20428328,0.73723066,0.7940135,0.2483553,0.46426377,0.30884147,0.52383846,0.40248704,0.5127131,0.44696262,0.40162343,0.21074013,0.21208654,0.1570732,795.78754,791.75824,765.16486,871.53845,812.71063,-0.12347412109375,0.0706787109375,0.99627685546875,4.32159423828125,-3.043060302734375,-1.233673095703125,1,1.0,1.0,1.0,1.0,100.00
2021-08-26 21:11:50.788,0.3539203,0.69278854,0.57227236,1.1172405,0.29831496,0.3757487,0.20428328,0.73723066,0.7940135,0.2483553,0.46426377,0.30884147,0.52383846,0.40248704,0.5127131,0.44696262,0.40162343,0.21074013,0.21208654,0.1570732,794.17584,797.8022,766.3736,871.9414,786.1172,-0.12347412109375,0.0706787109375,0.99627685546875,4.32159423828125,-3.043060302734375,-1.233673095703125,1,1.0,1.0,1.0,1.0,100.00
2021-08-26 21:11:50.788,0.3539203,0.69278854,0.57227236,1.1172405,0.29831496,0.3757487,0.20428328,0.73723066,0.7940135,0.2483553,0.46426377,0.30884147,0.52383846,0.40248704,0.5127131,0.44696262,0.40162343,0.21074013,0.21208654,0.1570732,801.02563,794.9817,759.92676,874.7619,723.663,-0.12347412109375,0.0706787109375,0.99627685546875,4.32159423828125,-3.043060302734375,-1.233673095703125,1,1.0,1.0,1.0,1.0,100.00
2021-08-26 21:11:50.789,0.3539203,0.69278854,0.57227236,1.1172405,0.29831496,0.3757487,0.20428328,0.73723066,0.7940135,0.2483553,0.46426377,0.30884147,0.52383846,0.40248704,0.5127131,0.44696262,0.40162343,0.21074013,0.21208654,0.1570732,796.1905,785.7143,754.68866,871.13556,699.4872,-0.12347412109375,0.0706787109375,0.99627685546875,4.32159423828125,-3.043060302734375,-1.233673095703125,1,1.0,1.0,1.0,1.0,100.00
2021-08-26 21:11:50.789,0.3539203,0.69278854,0.57227236,1.1172405,0.29831496,0.3757487,0.20428328,0.73723066,0.7940135,0.2483553,0.46426377,0.30884147,0.52383846,0.40248704,0.5127131,0.44696262,0.40162343,0.21074013,0.21208654,0.1570732,793.7729,776.8498,766.77655,863.8828,883.22345,-0.12347412109375,0.0706787109375,0.99627685546875,4.32159423828125,-3.043060302734375,-1.233673095703125,1,1.0,1.0,1.0,1.0,100.00
2021-08-26 21:11:50.789,0.3539203,0.69278854,0.57227236,1.1172405,0.29831496,0.3757487,0.20428328,0.73723066,0.7940135,0.2483553,0.46426377,0.30884147,0.52383846,0.40248704,0.5127131,0.44696262,0.40162343,0.21074013,0.21208654,0.1570732,795.38464,774.43225,773.22345,863.0769,1032.3077,-0.12347412109375,0.0706787109375,0.99627685546875,4.32159423828125,-3.043060302734375,-1.233673095703125,1,1.0,1.0,1.0,1.0,100.00
2021-08-26 21:11:50.790,0.3539203,0.69278854,0.57227236,1.1172405,0.29831496,0.3757487,0.20428328,0.73723066,0.7940135,0.2483553,0.46426377,0.30884147,0.52383846,0.40248704,0.5127131,0.44696262,0.40162343,0.21074013,0.21208654,0.1570732,797.3993,770.40295,772.8205,853.4066,765.56775,-0.12347412109375,0.0706787109375,0.99627685546875,4.32159423828125,-3.043060302734375,-1.233673095703125,1,1.0,1.0,1.0,1.0,100.00
2021-08-26 21:11:50.790,0.3539203,0.69278854,0.57227236,1.1172405,0.29831496,0.3757487,0.20428328,0.73723066,0.7940135,0.2483553,0.46426377,0.30884147,0.52383846,0.40248704,0.5127131,0.44696262,0.40162343,0.21074013,0.21208654,0.1570732,806.26373,763.95605,766.3736,843.73627,636.63007,-0.12347412109375,0.0706787109375,0.99627685546875,4.32159423828125,-3.043060302734375,-1.233673095703125,1,1.0,1.0,1.0,1.0,100.00
2021-08-26 21:11:50.790,0.3539203,0.69278854,0.57227236,1.1172405,0.29831496,0.3757487,0.20428328,0.73723066,0.7940135,0.2483553,0.46426377,0.30884147,0.52383846,0.40248704,0.5127131,0.44696262,0.40162343,0.21074013,0.21208654,0.1570732,807.8755,782.8938,765.56775,835.2747,729.707,-0.12347412109375,0.0706787109375,0.99627685546875,4.32159423828125,-3.043060302734375,-1.233673095703125,1,1.0,1.0,1.0,1.0,100.00
2021-08-26 21:11:50.827,0.3539203,0.69278854,0.57227236,1.1172405,0.29831496,0.3757487,0.20428328,0.73723066,0.7940135,0.2483553,0.46426377,0.30884147,0.52383846,0.40248704,0.5127131,0.44696262,0.40162343,0.21074013,0.21208654,0.1570732,795.78754,794.57874,769.19415,835.2747,808.68134,-0.12347412109375,0.0706787109375,0.99627685546875,4.32159423828125,-3.043060302734375,-1.233673095703125,1,1.0,1.0,1.0,1.0,100.00
2021-08-26 21:11:50.827,0.3539203,0.69278854,0.57227236,1.1172405,0.29831496,0.3757487,0.20428328,0.73723066,0.7940135,0.2483553,0.46426377,0.30884147,0.52383846,0.40248704,0.5127131,0.44696262,0.40162343,0.21074013,0.21208654,0.1570732,796.99634,783.69965,761.53845,843.3333,784.5055,-0.12347412109375,0.0706787109375,0.99627685546875,4.32159423828125,-3.043060302734375,-1.233673095703125,1,1.0,1.0,1.0,1.0,100.00
2021-08-26 21:11:50.828,0.3539203,0.69278854,0.57227236,1.1172405,0.29831496,0.3757487,0.20428328,0.73723066,0.7940135,0.2483553,0.46426377,0.30884147,0.52383846,0.40248704,0.5127131,0.44696262,0.40162343,0.21074013,0.21208654,0.1570732,803.8461,784.10254,763.5531,846.9597,720.0366,-0.12347412109375,0.0706787109375,0.99627685546875,4.32159423828125,-3.043060302734375,-1.233673095703125,1,1.0,1.0,1.0,1.0,100.00
2021-08-26 21:11:50.828,0.3539203,0.69278854,0.57227236,1.1172405,0.29831496,0.3757487,0.20428328,0.73723066,0.7940135,0.2483553,0.46426377,0.30884147,0.52383846,0.40248704,0.5127131,0.44696262,0.40162343,0.21074013,0.21208654,0.1570732,804.65204,788.1319,767.98535,848.1685,744.21246,-0.12347412109375,0.0706787109375,0.99627685546875,4.32159423828125,-3.043060302734375,-1.233673095703125,1,1.0,1.0,1.0,1.0,100.00
2021-08-26 21:11:50.828,0.3539203,0.69278854,0.57227236,1.1172405,0.29831496,0.3757487,0.20428328,0.73723066,0.7940135,0.2483553,0.46426377,0.30884147,0.52383846,0.40248704,0.5127131,0.44696262,0.40162343,0.21074013,0.21208654,0.1570732,801.02563,787.326,772.8205,855.82416,808.2784,-0.12347412109375,0.0706787109375,0.99627685546875,4.32159423828125,-3.043060302734375,-1.233673095703125,1,1.0,1.0,1.0,1.0,100.00
2021-08-26 21:11:50.828,0.3539203,0.69278854,0.57227236,1.1172405,0.29831496,0.3757487,0.20428328,0.73723066,0.7940135,0.2483553,0.46426377,0.30884147,0.52383846,0.40248704,0.5127131,0.44696262,0.40162343,0.21074013,0.21208654,0.1570732,810.293,786.9231,773.22345,868.315,856.2271,-0.12347412109375,0.0706787109375,0.99627685546875,4.32159423828125,-3.043060302734375,-1.233673095703125,1,1.0,1.0,1.0,1.0,100.00
2021-08-26 21:11:50.829,0.3539203,0.69278854,0.57227236,1.1172405,0.29831496,0.3757487,0.20428328,0.73723066,0.7940135,0.2483553,0.46426377,0.30884147,0.52383846,0.40248704,0.5127131,0.44696262,0.40162343,0.21074013,0.21208654,0.1570732,809.0842,782.0879,763.1502,871.9414,935.2015,-0.12347412109375,0.0706787109375,0.99627685546875,4.32159423828125,-3.043060302734375,-1.233673095703125,1,1.0,1.0,1.0,1.0,100.00
2021-08-26 21:11:50.829,0.3539203,0.69278854,0.57227236,1.1172405,0.29831496,0.3757487,0.20428328,0.73723066,0.7940135,0.2483553,0.46426377,0.30884147,0.52383846,0.40248704,0.5127131,0.44696262,0.40162343,0.21074013,0.21208654,0.1570732,780.87915,784.90845,756.30035,866.7033,1064.1392,-0.12347412109375,0.0706787109375,0.99627685546875,4.32159423828125,-3.043060302734375,-1.233673095703125,1,1.0,1.0,1.0,1.0,100.00
2021-08-26 21:11:50.829,0.3539203,0.69278854,0.57227236,1.1172405,0.29831496,0.3757487,0.20428328,0.73723066,0.7940135,0.2483553,0.46426377,0.30884147,0.52383846,0.40248704,0.5127131,0.44696262,0.40162343,0.21074013,0.21208654,0.1570732,774.83514,788.93774,759.92676,865.89746,974.68866,-0.12347412109375,0.0706787109375,0.99627685546875,4.32159423828125,-3.043060302734375,-1.233673095703125,1,1.0,1.0,1.0,1.0,100.00
2021-08-26 21:11:50.830,0.3622541,0.69278854,0.5867378,1.1172405,0.37035334,0.3757487,0.2092831,0.73723066,0.7940135,0.2483553,0.46426377,0.30884147,0.4992593,0.40248704,0.519964,0.44696262,0.40493912,0.21074013,0.22254872,0.1570732,794.57874,782.8938,767.1795,873.5531,743.8095,-0.12347412109375,0.0706787109375,0.99627685546875,4.32159423828125,-3.043060302734375,-1.233673095703125,1,1.0,1.0,1.0,1.0,100.00
2021-08-26 21:11:50.832,0.3622541,0.69278854,0.5867378,1.1172405,0.37035334,0.3757487,0.2092831,0.73723066,0.7940135,0.2483553,0.46426377,0.30884147,0.4992593,0.40248704,0.519964,0.44696262,0.40493912,0.21074013,0.22254872,0.1570732,812.71063,783.2967,762.3443,887.6557,720.4396,-0.12347412109375,0.0706787109375,0.99627685546875,4.32159423828125,-3.043060302734375,-1.233673095703125,1,1.0,1.0,1.0,1.0,100.00
2021-08-26 21:11:50.832,0.3622541,0.69278854,0.5867378,1.1172405,0.37035334,0.3757487,0.2092831,0.73723066,0.7940135,0.2483553,0.46426377,0.30884147,0.4992593,0.40248704,0.519964,0.44696262,0.40493912,0.21074013,0.22254872,0.1570732,804.65204,790.54944,754.68866,879.19415,797.3993,-0.12347412109375,0.0706787109375,0.99627685546875,4.32159423828125,-3.043060302734375,-1.233673095703125,1,1.0,1.0,1.0,1.0,100.00
2021-08-26 21:11:50.887,0.3622541,0.69278854,0.5867378,1.1172405,0.37035334,0.3757487,0.2092831,0.73723066,0.7940135,0.2483553,0.46426377,0.30884147,0.4992593,0.40248704,0.519964,0.44696262,0.40493912,0.21074013,0.22254872,0.1570732,795.78754,794.9817,756.7033,867.9121,741.39197,-0.12408447265625,0.07037353515625,0.9979248046875,4.224395751953125,-3.46923828125,-1.4654541015625,1,1.0,1.0,1.0,1.0,100.00
2021-08-26 21:11:50.888,0.3622541,0.69278854,0.5867378,1.1172405,0.37035334,0.3757487,0.2092831,0.73723066,0.7940135,0.2483553,0.46426377,0.30884147,0.4992593,0.40248704,0.519964,0.44696262,0.40493912,0.21074013,0.22254872,0.1570732,797.3993,797.3993,755.4945,869.12085,682.1612,-0.12408447265625,0.07037353515625,0.9979248046875,4.224395751953125,-3.46923828125,-1.4654541015625,1,1.0,1.0,1.0,1.0,100.00
2021-08-26 21:11:50.888,0.3622541,0.69278854,0.5867378,1.1172405,0.37035334,0.3757487,0.2092831,0.73723066,0.7940135,0.2483553,0.46426377,0.30884147,0.4992593,0.40248704,0.519964,0.44696262,0.40493912,0.21074013,0.22254872,0.1570732,791.3553,799.011,759.12085,867.9121,725.6777,-0.12408447265625,0.07037353515625,0.9979248046875,4.224395751953125,-3.46923828125,-1.4654541015625,1,1.0,1.0,1.0,1.0,100.00
2021-08-26 21:11:50.889,0.3622541,0.69278854,0.5867378,1.1172405,0.37035334,0.3757487,0.2092831,0.73723066,0.7940135,0.2483553,0.46426377,0.30884147,0.4992593,0.40248704,0.519964,0.44696262,0.40493912,0.21074013,0.22254872,0.1570732,796.1905,786.1172,763.1502,863.47986,729.707,-0.12408447265625,0.07037353515625,0.9979248046875,4.224395751953125,-3.46923828125,-1.4654541015625,1,1.0,1.0,1.0,1.0,100.00
2021-08-26 21:11:50.889,0.3622541,0.69278854,0.5867378,1.1172405,0.37035334,0.3757487,0.2092831,0.73723066,0.7940135,0.2483553,0.46426377,0.30884147,0.4992593,0.40248704,0.519964,0.44696262,0.40493912,0.21074013,0.22254872,0.1570732,800.2198,779.2674,755.89746,868.71796,747.03296,-0.12408447265625,0.07037353515625,0.9979248046875,4.224395751953125,-3.46923828125,-1.4654541015625,1,1.0,1.0,1.0,1.0,100.00
2021-08-26 21:11:50.890,0.3622541,0.69278854,0.5867378,1.1172405,0.37035334,0.3757487,0.2092831,0.73723066,0.7940135,0.2483553,0.46426377,0.30884147,0.4992593,0.40248704,0.519964,0.44696262,0.40493912,0.21074013,0.22254872,0.1570732,796.1905,793.36993,755.09155,875.16486,808.68134,-0.12408447265625,0.07037353515625,0.9979248046875,4.224395751953125,-3.46923828125,-1.4654541015625,1,1.0,1.0,1.0,1.0,100.00
2021-08-26 21:11:50.890,0.3622541,0.69278854,0.5867378,1.1172405,0.37035334,0.3757487,0.2092831,0.73723066,0.7940135,0.2483553,0.46426377,0.30884147,0.4992593,0.40248704,0.519964,0.44696262,0.40493912,0.21074013,0.22254872,0.1570732,786.9231,798.20514,757.9121,879.19415,912.23444,-0.12408447265625,0.07037353515625,0.9979248046875,4.224395751953125,-3.46923828125,-1.4654541015625,1,1.0,1.0,1.0,1.0,100.00
2021-08-26 21:11:50.890,0.3622541,0.69278854,0.5867378,1.1172405,0.37035334,0.3757487,0.2092831,0.73723066,0.7940135,0.2483553,0.46426377,0.30884147,0.4992593,0.40248704,0.519964,0.44696262,0.40493912,0.21074013,0.22254872,0.1570732,791.75824,794.57874,754.68866,885.2381,1025.8608,-0.12408447265625,0.07037353515625,0.9979248046875,4.224395751953125,-3.46923828125,-1.4654541015625,1,1.0,1.0,1.0,1.0,100.00
2021-08-26 21:11:50.891,0.3622541,0.69278854,0.5867378,1.1172405,0.37035334,0.3757487,0.2092831,0.73723066,0.7940135,0.2483553,0.46426377,0.30884147,0.4992593,0.40248704,0.519964,0.44696262,0.40493912,0.21074013,0.22254872,0.1570732,799.41394,778.46155,757.1062,880.40295,855.0183,-0.12408447265625,0.07037353515625,0.9979248046875,4.224395751953125,-3.46923828125,-1.4654541015625,1,1.0,1.0,1.0,1.0,100.00
2021-08-26 21:11:50.891,0.3622541,0.69278854,0.5867378,1.1172405,0.37035334,0.3757487,0.2092831,0.73723066,0.7940135,0.2483553,0.46426377,0.30884147,0.4992593,0.40248704,0.519964,0.44696262,0.40493912,0.21074013,0.22254872,0.1570732,784.90845,763.95605,751.8681,869.5238,756.30035,-0.12408447265625,0.07037353515625,0.9979248046875,4.224395751953125,-3.46923828125,-1.4654541015625,1,1.0,1.0,1.0,1.0,100.00
2021-08-26 21:11:50.891,0.3622541,0.69278854,0.5867378,1.1172405,0.37035334,0.3757487,0.2092831,0.73723066,0.7940135,0.2483553,0.46426377,0.30884147,0.4992593,0.40248704,0.519964,0.44696262,0.40493912,0.21074013,0.22254872,0.1570732,792.1612,767.5824,745.42126,865.09155,852.1978,-0.12408447265625,0.07037353515625,0.9979248046875,4.224395751953125,-3.46923828125,-1.4654541015625,1,1.0,1.0,1.0,1.0,100.00
2021-08-26 21:11:50.892,0.3622541,0.69278854,0.5867378,1.1172405,0.37035334,0.3757487,0.2092831,0.73723066,0.7940135,0.2483553,0.46426377,0.30884147,0.4992593,0.40248704,0.519964,0.44696262,0.40493912,0.21074013,0.22254872,0.1570732,793.7729,772.01465,761.9414,862.27106,807.0696,-0.12408447265625,0.07037353515625,0.9979248046875,4.224395751953125,-3.46923828125,-1.4654541015625,1,1.0,1.0,1.0,1.0,100.00
2021-08-26 21:11:50.927,0.3622541,0.69278854,0.5867378,1.1172405,0.37035334,0.3757487,0.2092831,0.73723066,0.7940135,0.2483553,0.46426377,0.30884147,0.4992593,0.40248704,0.519964,0.44696262,0.40493912,0.21074013,0.22254872,0.1570732,778.46155,773.22345,773.6264,860.65936,678.5348,-0.1224365234375,0.06951904296875,0.99676513671875,4.18701171875,-4.388885498046875,-2.07855224609375,1,1.0,1.0,1.0,1.0,100.00
2021-08-26 21:11:50.928,0.3622541,0.69278854,0.5867378,1.1172405,0.37035334,0.3757487,0.2092831,0.73723066,0.7940135,0.2483553,0.46426377,0.30884147,0.4992593,0.40248704,0.519964,0.44696262,0.40493912,0.21074013,0.22254872,0.1570732,778.86444,774.0293,770.80585,867.1062,698.68134,-0.1224365234375,0.06951904296875,0.99676513671875,4.18701171875,-4.388885498046875,-2.07855224609375,1,1.0,1.0,1.0,1.0,100.00
2021-08-26 21:11:50.928,0.3622541,0.69278854,0.5867378,1.1172405,0.37035334,0.3757487,0.2092831,0.73723066,0.7940135,0.2483553,0.46426377,0.30884147,0.4992593,0.40248704,0.519964,0.44696262,0.40493912,0.21074013,0.22254872,0.1570732,785.7143,778.0586,767.1795,865.09155,813.5165,-0.1224365234375,0.06951904296875,0.99676513671875,4.18701171875,-4.388885498046875,-2.07855224609375,1,1.0,1.0,1.0,1.0,100.00
2021-08-26 21:11:50.928,0.3622541,0.69278854,0.5867378,1.1172405,0.37035334,0.3757487,0.2092831,0.73723066,0.7940135,0.2483553,0.46426377,0.30884147,0.4992593,0.40248704,0.519964,0.44696262,0.40493912,0.21074013,0.22254872,0.1570732,780.4762,781.685,763.1502,862.674,793.36993,-0.1224365234375,0.06951904296875,0.99676513671875,4.18701171875,-4.388885498046875,-2.07855224609375,1,1.0,1.0,1.0,1.0,100.00
2021-08-26 21:11:50.929,0.3622541,0.69278854,0.5867378,1.1172405,0.37035334,0.3757487,0.2092831,0.73723066,0.7940135,0.2483553,0.46426377,0.30884147,0.4992593,0.40248704,0.519964,0.44696262,0.40493912,0.21074013,0.22254872,0.1570732,780.07324,780.87915,759.12085,861.4652,701.9048,-0.1224365234375,0.06951904296875,0.99676513671875,4.18701171875,-4.388885498046875,-2.07855224609375,1,1.0,1.0,1.0,1.0,100.00
2021-08-26 21:11:50.929,0.3622541,0.69278854,0.5867378,1.1172405,0.37035334,0.3757487,0.2092831,0.73723066,0.7940135,0.2483553,0.46426377,0.30884147,0.4992593,0.40248704,0.519964,0.44696262,0.40493912,0.21074013,0.22254872,0.1570732,803.44324,782.8938,761.13556,859.0476,745.82416,-0.1224365234375,0.06951904296875,0.99676513671875,4.18701171875,-4.388885498046875,-2.07855224609375,1,1.0,1.0,1.0,1.0,100.00
2021-08-26 21:11:50.929,0.3622541,0.69278854,0.5867378,1.1172405,0.37035334,0.3757487,0.2092831,0.73723066,0.7940135,0.2483553,0.46426377,0.30884147,0.4992593,0.40248704,0.519964,0.44696262,0.40493912,0.21074013,0.22254872,0.1570732,809.4872,780.4762,761.53845,863.0769,966.2271,-0.1224365234375,0.06951904296875,0.99676513671875,4.18701171875,-4.388885498046875,-2.07855224609375,1,1.0,1.0,1.0,1.0,100.00
2021-08-26 21:11:50.930,0.3622541,0.69278854,0.5867378,1.1172405,0.37035334,0.3757487,0.2092831,0.73723066,0.7940135,0.2483553,0.46426377,0.30884147,0.4992593,0.40248704,0.519964,0.44696262,0.40493912,0.21074013,0.22254872,0.1570732,813.1135,771.2088,760.7326,868.71796,925.5311,-0.1224365234375,0.06951904296875,0.99676513671875,4.18701171875,-4.388885498046875,-2.07855224609375,1,1.0,1.0,1.0,1.0,100.00
2021-08-26 21:11:50.930,0.3622541,0.69278854,0.5867378,1.1172405,0.37035334,0.3757487,0.2092831,0.73723066,0.7940135,0.2483553,0.46426377,0.30884147,0.4992593,0.40248704,0.519964,0.44696262,0.40493912,0.21074013,0.22254872,0.1570732,803.44324,767.5824,761.9414,869.92676,711.5751,-0.1224365234375,0.06951904296875,0.99676513671875,4.18701171875,-4.388885498046875,-2.07855224609375,1,1.0,1.0,1.0,1.0,100.00
2021-08-26 21:11:50.931,0.3622541,0.69278854,0.5867378,1.1172405,0.37035334,0.3757487,0.2092831,0.73723066,0.7940135,0.2483553,0.46426377,0.30884147,0.4992593,0.40248704,0.519964,0.44696262,0.40493912,0.21074013,0.22254872,0.1570732,796.1905,780.07324,760.32965,870.7326,713.5897,-0.1224365234375,0.06951904296875,0.99676513671875,4.18701171875,-4.388885498046875,-2.07855224609375,1,1.0,1.0,1.0,1.0,100.00
2021-08-26 21:11:50.931,0.3622541,0.69278854,0.5867378,1.1172405,0.37035334,0.3757487,0.2092831,0.73723066,0.7940135,0.2483553,0.46426377,0.30884147,0.4992593,0.40248704,0.519964,0.44696262,0.40493912,0.21074013,0.22254872,0.1570732,801.4286,786.9231,755.09155,867.9121,843.3333,-0.1224365234375,0.06951904296875,0.99676513671875,4.18701171875,-4.388885498046875,-2.07855224609375,1,1.0,1.0,1.0,1.0,100.00
2021-08-26 21:11:50.931,0.36281976,0.69278854,0.61252147,1.1172405,0.42809418,0.3757487,0.21058956,0.73723066,0.80599415,0.2483553,0.46426377,0.30884147,0.4782678,0.40248704,0.5243535,0.44696262,0.40710554,0.21074013,0.23518392,0.1570732,792.1612,782.0879,760.32965,846.1539,756.30035,-0.1224365234375,0.06951904296875,0.99676513671875,4.18701171875,-4.388885498046875,-2.07855224609375,1,1.0,1.0,1.0,1.0,100.00
2021-08-26 21:11:50.980,0.36281976,0.69278854,0.61252147,1.1172405,0.42809418,0.3757487,0.21058956,0.73723066,0.80599415,0.2483553,0.46426377,0.30884147,0.4782678,0.40248704,0.5243535,0.44696262,0.40710554,0.21074013,0.23518392,0.1570732,790.14655,784.90845,764.7619,839.304,726.08057,-0.11846923828125,0.0657958984375,0.9951171875,4.658050537109375,-5.271148681640625,-1.6748046875,1,1.0,1.0,1.0,1.0,100.00
2021-08-26 21:11:50.981,0.36281976,0.69278854,0.61252147,1.1172405,0.42809418,0.3757487,0.21058956,0.73723066,0.80599415,0.2483553,0.46426377,0.30884147,0.4782678,0.40248704,0.5243535,0.44696262,0.40710554,0.21074013,0.23518392,0.1570732,789.7436,794.9817,760.7326,836.8865,815.5311,-0.11846923828125,0.0657958984375,0.9951171875,4.658050537109375,-5.271148681640625,-1.6748046875,1,1.0,1.0,1.0,1.0,100.00
2021-08-26 21:11:50.981,0.36281976,0.69278854,0.61252147,1.1172405,0.42809418,0.3757487,0.21058956,0.73723066,0.80599415,0.2483553,0.46426377,0.30884147,0.4782678,0.40248704,0.5243535,0.44696262,0.40710554,0.21074013,0.23518392,0.1570732,789.7436,796.1905,755.4945,830.0366,805.05493,-0.11846923828125,0.0657958984375,0.9951171875,4.658050537109375,-5.271148681640625,-1.6748046875,1,1.0,1.0,1.0,1.0,100.00
2021-08-26 21:11:50.982,0.36281976,0.69278854,0.61252147,1.1172405,0.42809418,0.3757487,0.21058956,0.73723066,0.80599415,0.2483553,0.46426377,0.30884147,0.4782678,0.40248704,0.5243535,0.44696262,0.40710554,0.21074013,0.23518392,0.1570732,788.93774,792.1612,755.09155,826.8132,673.2967,-0.11846923828125,0.0657958984375,0.9951171875,4.658050537109375,-5.271148681640625,-1.6748046875,1,1.0,1.0,1.0,1.0,100.00
2021-08-26 21:11:50.982,0.36281976,0.69278854,0.61252147,1.1172405,0.42809418,0.3757487,0.21058956,0.73723066,0.80599415,0.2483553,0.46426377,0.30884147,0.4782678,0.40248704,0.5243535,0.44696262,0.40710554,0.21074013,0.23518392,0.1570732,791.75824,787.326,761.53845,826.4103,614.0659,-0.11846923828125,0.0657958984375,0.9951171875,4.658050537109375,-5.271148681640625,-1.6748046875,1,1.0,1.0,1.0,1.0,100.00
2021-08-26 21:11:50.982,0.36281976,0.69278854,0.61252147,1.1172405,0.42809418,0.3757487,0.21058956,0.73723066,0.80599415,0.2483553,0.46426377,0.30884147,0.4782678,0.40248704,0.5243535,0.44696262,0.40710554,0.21074013,0.23518392,0.1570732,810.293,777.6557,758.315,836.08057,847.3626,-0.11846923828125,0.0657958984375,0.9951171875,4.658050537109375,-5.271148681640625,-1.6748046875,1,1.0,1.0,1.0,1.0,100.00
2021-08-26 21:11:50.983,0.36281976,0.69278854,0.61252147,1.1172405,0.42809418,0.3757487,0.21058956,0.73723066,0.80599415,0.2483553,0.46426377,0.30884147,0.4782678,0.40248704,0.5243535,0.44696262,0.40710554,0.21074013,0.23518392,0.1570732,804.2491,779.2674,764.7619,845.34796,1036.7399,-0.11846923828125,0.0657958984375,0.9951171875,4.658050537109375,-5.271148681640625,-1.6748046875,1,1.0,1.0,1.0,1.0,100.00
2021-08-26 21:11:50.983,0.36281976,0.69278854,0.61252147,1.1172405,0.42809418,0.3757487,0.21058956,0.73723066,0.80599415,0.2483553,0.46426377,0.30884147,0.4782678,0.40248704,0.5243535,0.44696262,0.40710554,0.21074013,0.23518392,0.1570732,789.7436,785.31134,764.7619,855.0183,795.78754,-0.11846923828125,0.0657958984375,0.9951171875,4.658050537109375,-5.271148681640625,-1.6748046875,1,1.0,1.0,1.0,1.0,100.00
2021-08-26 21:11:50.983,0.36281976,0.69278854,0.61252147,1.1172405,0.42809418,0.3757487,0.21058956,0.73723066,0.80599415,0.2483553,0.46426377,0.30884147,0.4782678,0.40248704,0.5243535,0.44696262,0.40710554,0.21074013,0.23518392,0.1570732,798.20514,782.8938,753.47986,859.85345,610.0366,-0.11846923828125,0.0657958984375,0.9951171875,4.658050537109375,-5.271148681640625,-1.6748046875,1,1.0,1.0,1.0,1.0,100.00
2021-08-26 21:11:50.984,0.36281976,0.69278854,0.61252147,1.1172405,0.42809418,0.3757487,0.21058956,0.73723066,0.80599415,0.2483553,0.46426377,0.30884147,0.4782678,0.40248704,0.5243535,0.44696262,0.40710554,0.21074013,0.23518392,0.1570732,790.14655,783.2967,755.09155,842.9304,723.2601,-0.11846923828125,0.0657958984375,0.9951171875,4.658050537109375,-5.271148681640625,-1.6748046875,1,1.0,1.0,1.0,1.0,100.00
2021-08-26 21:11:50.984,0.36281976,0.69278854,0.61252147,1.1172405,0.42809418,0.3757487,0.21058956,0.73723066,0.80599415,0.2483553,0.46426377,0.30884147,0.4782678,0.40248704,0.5243535,0.44696262,0.40710554,0.21074013,0.23518392,0.1570732,793.7729,792.5641,758.315,839.707,789.7436,-0.11846923828125,0.0657958984375,0.9951171875,4.658050537109375,-5.271148681640625,-1.6748046875,1,1.0,1.0,1.0,1.0,100.00
2021-08-26 21:11:50.985,0.36281976,0.69278854,0.61252147,1.1172405,0.42809418,0.3757487,0.21058956,0.73723066,0.80599415,0.2483553,0.46426377,0.30884147,0.4782678,0.40248704,0.5243535,0.44696262,0.40710554,0.21074013,0.23518392,0.1570732,790.14655,793.7729,758.71796,838.49817,726.4835,-0.11846923828125,0.0657958984375,0.9951171875,4.658050537109375,-5.271148681640625,-1.6748046875,1,1.0,1.0,1.0,1.0,100.00
2021-08-26 21:11:51.028,0.36281976,0.69278854,0.61252147,1.1172405,0.42809418,0.3757487,0.21058956,0.73723066,0.80599415,0.2483553,0.46426377,0.30884147,0.4782678,0.40248704,0.5243535,0.44696262,0.40710554,0.21074013,0.23518392,0.1570732,785.7143,790.14655,762.3443,825.6044,757.50916,-0.11529541015625,0.06768798828125,0.99737548828125,5.271148681640625,-4.508514404296875,-0.740203857421875,1,1.0,1.0,1.0,1.0,100.00
2021-08-26 21:11:51.029,0.36281976,0.69278854,0.61252147,1.1172405,0.42809418,0.3757487,0.21058956,0.73723066,0.80599415,0.2483553,0.46426377,0.30884147,0.4782678,0.40248704,0.5243535,0.44696262,0.40710554,0.21074013,0.23518392,0.1570732,800.6227,785.7143,759.12085,831.2454,801.4286,-0.11529541015625,0.06768798828125,0.99737548828125,5.271148681640625,-4.508514404296875,-0.740203857421875,1,1.0,1.0,1.0,1.0,100.00
2021-08-26 21:11:51.029,0.36281976,0.69278854,0.61252147,1.1172405,0.42809418,0.3757487,0.21058956,0.73723066,0.80599415,0.2483553,0.46426377,0.30884147,0.4782678,0.40248704,0.5243535,0.44696262,0.40710554,0.21074013,0.23518392,0.1570732,801.02563,781.685,748.24176,839.304,692.23444,-0.11529541015625,0.06768798828125,0.99737548828125,5.271148681640625,-4.508514404296875,-0.740203857421875,1,1.0,1.0,1.0,1.0,100.00
2021-08-26 21:11:51.029,0.36281976,0.69278854,0.61252147,1.1172405,0.42809418,0.3757487,0.21058956,0.73723066,0.80599415,0.2483553,0.46426377,0.30884147,0.4782678,0.40248704,0.5243535,0.44696262,0.40710554,0.21074013,0.23518392,0.1570732,800.6227,783.69965,749.45056,828.8278,682.96704,-0.11529541015625,0.06768798828125,0.99737548828125,5.271148681640625,-4.508514404296875,-0.740203857421875,1,1.0,1.0,1.0,1.0,100.00
2021-08-26 21:11:51.029,0.36281976,0.69278854,0.61252147,1.1172405,0.42809418,0.3757487,0.21058956,0.73723066,0.80599415,0.2483553,0.46426377,0.30884147,0.4782678,0.40248704,0.5243535,0.44696262,0.40710554,0.21074013,0.23518392,0.1570732,808.2784,783.69965,760.7326,834.0659,838.0952,-0.11529541015625,0.06768798828125,0.99737548828125,5.271148681640625,-4.508514404296875,-0.740203857421875,1,1.0,1.0,1.0,1.0,100.00
2021-08-26 21:11:51.030,0.36281976,0.69278854,0.61252147,1.1172405,0.42809418,0.3757487,0.21058956,0.73723066,0.80599415,0.2483553,0.46426377,0.30884147,0.4782678,0.40248704,0.5243535,0.44696262,0.40710554,0.21074013,0.23518392,0.1570732,817.5458,786.52014,767.5824,854.21246,1043.9927,-0.11529541015625,0.06768798828125,0.99737548828125,5.271148681640625,-4.508514404296875,-0.740203857421875,1,1.0,1.0,1.0,1.0,100.00
2021-08-26 21:11:51.030,0.36281976,0.69278854,0.61252147,1.1172405,0.42809418,0.3757487,0.21058956,0.73723066,0.80599415,0.2483553,0.46426377,0.30884147,0.4782678,0.40248704,0.5243535,0.44696262,0.40710554,0.21074013,0.23518392,0.1570732,816.7399,788.5348,768.7912,850.989,933.1868,-0.11529541015625,0.06768798828125,0.99737548828125,5.271148681640625,-4.508514404296875,-0.740203857421875,1,1.0,1.0,1.0,1.0,100.00
2021-08-26 21:11:51.030,0.36281976,0.69278854,0.61252147,1.1172405,0.42809418,0.3757487,0.21058956,0.73723066,0.80599415,0.2483553,0.46426377,0.30884147,0.4782678,0.40248704,0.5243535,0.44696262,0.40710554,0.21074013,0.23518392,0.1570732,816.337,780.4762,767.5824,852.1978,698.68134,-0.11529541015625,0.06768798828125,0.99737548828125,5.271148681640625,-4.508514404296875,-0.740203857421875,1,1.0,1.0,1.0,1.0,100.00
2021-08-26 21:11:51.031,0.36281976,0.69278854,0.61252147,1.1172405,0.42809418,0.3757487,0.21058956,0.73723066,0.80599415,0.2483553,0.46426377,0.30884147,0.4782678,0.40248704,0.5243535,0.44696262,0.40710554,0.21074013,0.23518392,0.1570732,827.2161,779.67035,767.5824,876.3736,751.4652,-0.11529541015625,0.06768798828125,0.99737548828125,5.271148681640625,-4.508514404296875,-0.740203857421875,1,1.0,1.0,1.0,1.0,100.00
2021-08-26 21:11:51.031,0.36281976,0.69278854,0.61252147,1.1172405,0.42809418,0.3757487,0.21058956,0.73723066,0.80599415,0.2483553,0.46426377,0.30884147,0.4782678,0.40248704,0.5243535,0.44696262,0.40710554,0.21074013,0.23518392,0.1570732,822.7839,784.90845,755.89746,886.8498,980.7326,-0.11529541015625,0.06768798828125,0.99737548828125,5.271148681640625,-4.508514404296875,-0.740203857421875,1,1.0,1.0,1.0,1.0,100.00
2021-08-26 21:11:51.031,0.36281976,0.69278854,0.61252147,1.1172405,0.42809418,0.3757487,0.21058956,0.73723066,0.80599415,0.2483553,0.46426377,0.30884147,0.4782678,0.40248704,0.5243535,0.44696262,0.40710554,0.21074013,0.23518392,0.1570732,819.9634,799.81683,753.0769,875.9707,847.76556,-0.11529541015625,0.06768798828125,0.99737548828125,5.271148681640625,-4.508514404296875,-0.740203857421875,1,1.0,1.0,1.0,1.0,100.00
2021-08-26 21:11:51.031,0.36281976,0.69278854,0.61252147,1.1172405,0.42809418,0.3757487,0.21058956,0.73723066,0.80599415,0.2483553,0.46426377,0.30884147,0.4782678,0.40248704,0.5243535,0.44696262,0.40710554,0.21074013,0.23518392,0.1570732,821.5751,802.23444,770.0,873.5531,654.35895,-0.11529541015625,0.06768798828125,0.99737548828125,5.271148681640625,-4.508514404296875,-0.740203857421875,1,1.0,1.0,1.0,1.0,100.00
2021-08-26 21:11:51.059,0.36281976,0.69278854,0.61252147,1.1172405,0.42809418,0.3757487,0.21058956,0.73723066,0.80599415,0.2483553,0.46426377,0.30884147,0.4782678,0.40248704,0.5243535,0.44696262,0.40710554,0.21074013,0.23518392,0.1570732,798.20514,780.4762,776.04395,879.19415,691.02563,-0.11529541015625,0.06768798828125,0.99737548828125,5.271148681640625,-4.508514404296875,-0.740203857421875,1,1.0,1.0,1.0,1.0,100.00
2021-08-26 21:11:51.060,0.35400125,0.69278854,0.6429534,1.1172405,0.45961583,0.3757487,0.20608512,0.73723066,0.8050513,0.2483553,0.46426377,0.30884147,0.46653295,0.40248704,0.52297384,0.44696262,0.40754867,0.21074013,0.24748997,0.1570732,797.3993,778.46155,769.59705,877.1795,780.4762,-0.11529541015625,0.06768798828125,0.99737548828125,5.271148681640625,-4.508514404296875,-0.740203857421875,1,1.0,1.0,1.0,1.0,100.00
2021-08-26 21:11:51.062,0.35400125,0.69278854,0.6429534,1.1172405,0.45961583,0.3757487,0.20608512,0.73723066,0.8050513,0.2483553,0.46426377,0.30884147,0.46653295,0.40248704,0.52297384,0.44696262,0.40754867,0.21074013,0.24748997,0.1570732,792.5641,788.93774,755.4945,879.19415,787.72894,-0.11529541015625,0.06768798828125,0.99737548828125,5.271148681640625,-4.508514404296875,-0.740203857421875,1,1.0,1.0,1.0,1.0,100.00
2021-08-26 21:11:51.063,0.35400125,0.69278854,0.6429534,1.1172405,0.45961583,0.3757487,0.20608512,0.73723066,0.8050513,0.2483553,0.46426377,0.30884147,0.46653295,0.40248704,0.52297384,0.44696262,0.40754867,0.21074013,0.24748997,0.1570732,774.0293,783.2967,752.27106,865.09155,782.0879,-0.11529541015625,0.06768798828125,0.99737548828125,5.271148681640625,-4.508514404296875,-0.740203857421875,1,1.0,1.0,1.0,1.0,100.00
2021-08-26 21:11:51.063,0.35400125,0.69278854,0.6429534,1.1172405,0.45961583,0.3757487,0.20608512,0.73723066,0.8050513,0.2483553,0.46426377,0.30884147,0.46653295,0.40248704,0.52297384,0.44696262,0.40754867,0.21074013,0.24748997,0.1570732,785.31134,779.2674,774.0293,858.24176,827.619,-0.11529541015625,0.06768798828125,0.99737548828125,5.271148681640625,-4.508514404296875,-0.740203857421875,1,1.0,1.0,1.0,1.0,100.00
2021-08-26 21:11:51.063,0.35400125,0.69278854,0.6429534,1.1172405,0.45961583,0.3757487,0.20608512,0.73723066,0.8050513,0.2483553,0.46426377,0.30884147,0.46653295,0.40248704,0.52297384,0.44696262,0.40754867,0.21074013,0.24748997,0.1570732,791.75824,777.25275,780.07324,863.8828,857.8388,-0.11529541015625,0.06768798828125,0.99737548828125,5.271148681640625,-4.508514404296875,-0.740203857421875,1,1.0,1.0,1.0,1.0,100.00
2021-08-26 21:11:51.064,0.35400125,0.69278854,0.6429534,1.1172405,0.45961583,0.3757487,0.20608512,0.73723066,0.8050513,0.2483553,0.46426377,0.30884147,0.46653295,0.40248704,0.52297384,0.44696262,0.40754867,0.21074013,0.24748997,0.1570732,785.7143,773.6264,762.74725,865.4945,838.9011,-0.11529541015625,0.06768798828125,0.99737548828125,5.271148681640625,-4.508514404296875,-0.740203857421875,1,1.0,1.0,1.0,1.0,100.00
2021-08-26 21:11:51.064,0.35400125,0.69278854,0.6429534,1.1172405,0.45961583,0.3757487,0.20608512,0.73723066,0.8050513,0.2483553,0.46426377,0.30884147,0.46653295,0.40248704,0.52297384,0.44696262,0.40754867,0.21074013,0.24748997,0.1570732,784.10254,773.22345,766.3736,865.09155,826.4103,-0.11529541015625,0.06768798828125,0.99737548828125,5.271148681640625,-4.508514404296875,-0.740203857421875,1,1.0,1.0,1.0,1.0,100.00
2021-08-26 21:11:51.064,0.35400125,0.69278854,0.6429534,1.1172405,0.45961583,0.3757487,0.20608512,0.73723066,0.8050513,0.2483553,0.46426377,0.30884147,0.46653295,0.40248704,0.52297384,0.44696262,0.40754867,0.21074013,0.24748997,0.1570732,776.4469,774.0293,776.04395,863.8828,958.5714,-0.11529541015625,0.06768798828125,0.99737548828125,5.271148681640625,-4.508514404296875,-0.740203857421875,1,1.0,1.0,1.0,1.0,100.00
2021-08-26 21:11:51.065,0.35400125,0.69278854,0.6429534,1.1172405,0.45961583,0.3757487,0.20608512,0.73723066,0.8050513,0.2483553,0.46426377,0.30884147,0.46653295,0.40248704,0.52297384,0.44696262,0.40754867,0.21074013,0.24748997,0.1570732,786.52014,780.87915,764.7619,867.1062,1010.54944,-0.11529541015625,0.06768798828125,0.99737548828125,5.271148681640625,-4.508514404296875,-0.740203857421875,1,1.0,1.0,1.0,1.0,100.00
2021-08-26 21:11:51.065,0.35400125,0.69278854,0.6429534,1.1172405,0.45961583,0.3757487,0.20608512,0.73723066,0.8050513,0.2483553,0.46426377,0.30884147,0.46653295,0.40248704,0.52297384,0.44696262,0.40754867,0.21074013,0.24748997,0.1570732,796.99634,783.2967,765.16486,865.89746,728.49817,-0.11529541015625,0.06768798828125,0.99737548828125,5.271148681640625,-4.508514404296875,-0.740203857421875,1,1.0,1.0,1.0,1.0,100.00
2021-08-26 21:11:51.065,0.35400125,0.69278854,0.6429534,1.1172405,0.45961583,0.3757487,0.20608512,0.73723066,0.8050513,0.2483553,0.46426377,0.30884147,0.46653295,0.40248704,0.52297384,0.44696262,0.40754867,0.21074013,0.24748997,0.1570732,792.1612,782.8938,770.40295,859.45056,731.7216,-0.11529541015625,0.06768798828125,0.99737548828125,5.271148681640625,-4.508514404296875,-0.740203857421875,1,1.0,1.0,1.0,1.0,100.00
2021-08-26 21:11:51.128,0.35400125,0.69278854,0.6429534,1.1172405,0.45961583,0.3757487,0.20608512,0.73723066,0.8050513,0.2483553,0.46426377,0.30884147,0.46653295,0.40248704,0.52297384,0.44696262,0.40754867,0.21074013,0.24748997,0.1570732,780.4762,782.8938,774.83514,858.24176,923.5165,-0.11712646484375,0.07568359375,1.0003662109375,5.30853271484375,-3.880462646484375,-0.22430419921875,1,1.0,1.0,1.0,1.0,100.00
2021-08-26 21:11:51.128,0.35400125,0.69278854,0.6429534,1.1172405,0.45961583,0.3757487,0.20608512,0.73723066,0.8050513,0.2483553,0.46426377,0.30884147,0.46653295,0.40248704,0.52297384,0.44696262,0.40754867,0.21074013,0.24748997,0.1570732,768.7912,783.69965,777.6557,855.82416,838.0952,-0.11712646484375,0.07568359375,1.0003662109375,5.30853271484375,-3.880462646484375,-0.22430419921875,1,1.0,1.0,1.0,1.0,100.00
2021-08-26 21:11:51.129,0.35400125,0.69278854,0.6429534,1.1172405,0.45961583,0.3757487,0.20608512,0.73723066,0.8050513,0.2483553,0.46426377,0.30884147,0.46653295,0.40248704,0.52297384,0.44696262,0.40754867,0.21074013,0.24748997,0.1570732,774.43225,782.0879,768.7912,856.63007,711.1722,-0.11712646484375,0.07568359375,1.0003662109375,5.30853271484375,-3.880462646484375,-0.22430419921875,1,1.0,1.0,1.0,1.0,100.00
2021-08-26 21:11:51.129,0.35400125,0.69278854,0.6429534,1.1172405,0.45961583,0.3757487,0.20608512,0.73723066,0.8050513,0.2483553,0.46426377,0.30884147,0.46653295,0.40248704,0.52297384,0.44696262,0.40754867,0.21074013,0.24748997,0.1570732,778.0586,771.2088,757.1062,861.06226,721.2454,-0.11712646484375,0.07568359375,1.0003662109375,5.30853271484375,-3.880462646484375,-0.22430419921875,1,1.0,1.0,1.0,1.0,100.00
2021-08-26 21:11:51.129,0.35400125,0.69278854,0.6429534,1.1172405,0.45961583,0.3757487,0.20608512,0.73723066,0.8050513,0.2483553,0.46426377,0.30884147,0.46653295,0.40248704,0.52297384,0.44696262,0.40754867,0.21074013,0.24748997,0.1570732,770.80585,772.01465,749.85345,859.85345,775.64105,-0.11712646484375,0.07568359375,1.0003662109375,5.30853271484375,-3.880462646484375,-0.22430419921875,1,1.0,1.0,1.0,1.0,100.00
2021-08-26 21:11:51.130,0.35400125,0.69278854,0.6429534,1.1172405,0.45961583,0.3757487,0.20608512,0.73723066,0.8050513,0.2483553,0.46426377,0.30884147,0.46653295,0.40248704,0.52297384,0.44696262,0.40754867,0.21074013,0.24748997,0.1570732,780.4762,782.49084,759.5238,856.63007,916.26373,-0.11712646484375,0.07568359375,1.0003662109375,5.30853271484375,-3.880462646484375,-0.22430419921875,1,1.0,1.0,1.0,1.0,100.00
2021-08-26 21:11:51.130,0.35400125,0.69278854,0.6429534,1.1172405,0.45961583,0.3757487,0.20608512,0.73723066,0.8050513,0.2483553,0.46426377,0.30884147,0.46653295,0.40248704,0.52297384,0.44696262,0.40754867,0.21074013,0.24748997,0.1570732,794.17584,790.54944,768.7912,850.18317,952.9304,-0.11712646484375,0.07568359375,1.0003662109375,5.30853271484375,-3.880462646484375,-0.22430419921875,1,1.0,1.0,1.0,1.0,100.00
2021-08-26 21:11:51.130,0.35400125,0.69278854,0.6429534,1.1172405,0.45961583,0.3757487,0.20608512,0.73723066,0.8050513,0.2483553,0.46426377,0.30884147,0.46653295,0.40248704,0.52297384,0.44696262,0.40754867,0.21074013,0.24748997,0.1570732,792.96704,791.75824,762.74725,848.97437,801.02563,-0.11712646484375,0.07568359375,1.0003662109375,5.30853271484375,-3.880462646484375,-0.22430419921875,1,1.0,1.0,1.0,1.0,100.00
2021-08-26 21:11:51.131,0.35400125,0.69278854,0.6429534,1.1172405,0.45961583,0.3757487,0.20608512,0.73723066,0.8050513,0.2483553,0.46426377,0.30884147,0.46653295,0.40248704,0.52297384,0.44696262,0.40754867,0.21074013,0.24748997,0.1570732,792.96704,790.54944,759.92676,859.0476,935.2015,-0.11712646484375,0.07568359375,1.0003662109375,5.30853271484375,-3.880462646484375,-0.22430419921875,1,1.0,1.0,1.0,1.0,100.00
2021-08-26 21:11:51.131,0.35400125,0.69278854,0.6429534,1.1172405,0.45961583,0.3757487,0.20608512,0.73723066,0.8050513,0.2483553,0.46426377,0.30884147,0.46653295,0.40248704,0.52297384,0.44696262,0.40754867,0.21074013,0.24748997,0.1570732,802.6374,796.1905,746.63007,873.5531,935.6044,-0.11712646484375,0.07568359375,1.0003662109375,5.30853271484375,-3.880462646484375,-0.22430419921875,1,1.0,1.0,1.0,1.0,100.00
2021-08-26 21:11:51.131,0.35400125,0.69278854,0.6429534,1.1172405,0.45961583,0.3757487,0.20608512,0.73723066,0.8050513,0.2483553,0.46426377,0.30884147,0.46653295,0.40248704,0.52297384,0.44696262,0.40754867,0.21074013,0.24748997,0.1570732,805.4579,798.20514,749.45056,873.1502,732.52747,-0.11712646484375,0.07568359375,1.0003662109375,5.30853271484375,-3.880462646484375,-0.22430419921875,1,1.0,1.0,1.0,1.0,100.00
2021-08-26 21:11:51.131,0.35400125,0.69278854,0.6429534,1.1172405,0.45961583,0.3757487,0.20608512,0.73723066,0.8050513,0.2483553,0.46426377,0.30884147,0.46653295,0.40248704,0.52297384,0.44696262,0.40754867,0.21074013,0.24748997,0.1570732,804.2491,790.14655,771.6117,867.1062,790.9524,-0.11712646484375,0.07568359375,1.0003662109375,5.30853271484375,-3.880462646484375,-0.22430419921875,1,1.0,1.0,1.0,1.0,100.00
2021-08-26 21:11:51.159,0.35400125,0.69278854,0.6429534,1.1172405,0.45961583,0.3757487,0.20608512,0.73723066,0.8050513,0.2483553,0.46426377,0.30884147,0.46653295,0.40248704,0.52297384,0.44696262,0.40754867,0.21074013,0.24748997,0.1570732,809.0842,789.34064,774.83514,867.50916,788.1319,-0.12103271484375,0.07080078125,0.9993896484375,5.0244140625,-3.887939453125,-0.710296630859375,1,1.0,1.0,1.0,1.0,100.00
2021-08-26 21:11:51.160,0.35400125,0.69278854,0.6429534,1.1172405,0.45961583,0.3757487,0.20608512,0.73723066,0.8050513,0.2483553,0.46426377,0.30884147,0.46653295,0.40248704,0.52297384,0.44696262,0.40754867,0.21074013,0.24748997,0.1570732,817.5458,794.57874,765.9707,868.315,708.7546,-0.12103271484375,0.07080078125,0.9993896484375,5.0244140625,-3.887939453125,-0.710296630859375,1,1.0,1.0,1.0,1.0,100.00
2021-08-26 21:11:51.160,0.35400125,0.69278854,0.6429534,1.1172405,0.45961583,0.3757487,0.20608512,0.73723066,0.8050513,0.2483553,0.46426377,0.30884147,0.46653295,0.40248704,0.52297384,0.44696262,0.40754867,0.21074013,0.24748997,0.1570732,819.5604,791.3553,765.9707,870.32965,670.4762,-0.12103271484375,0.07080078125,0.9993896484375,5.0244140625,-3.887939453125,-0.710296630859375,1,1.0,1.0,1.0,1.0,100.00
